WetView ver 7.1	07-20-2019	15:35:14
AC9 Absorption and Attenuation Meter
00000311		; Serial number
2	; structure version number
Reserved
0.000000	0.000000		; Depth calibration
19200			; Baud rate
0.100000			; Path length (meters)
23			; number of temperature calibration bins
				12.61517	13.44096	14.46844	15.49904	16.50682	17.50108	18.49752	19.51783	20.49177	21.49009	22.48286	23.50673	24.54012	25.54812	26.49986	27.49321	28.50960	29.48671	30.47471	31.49432	32.50437	33.48679	34.49133	; temperature bins
a650	Blue	18.61587		0.01156	0.01096	0.01010	0.00930	0.00851	0.00774	0.00661	0.00573	0.00499	0.00402	0.00285	0.00203	0.00096	0.00000	-0.00110	-0.00152	-0.00210	-0.00247	-0.00259	-0.00317	-0.00346	-0.00380	-0.00403		; offset and temperature correction info
a676	Green	18.78942		0.00964	0.00899	0.00863	0.00813	0.00730	0.00639	0.00545	0.00448	0.00385	0.00301	0.00233	0.00165	0.00046	0.00000	-0.00106	-0.00167	-0.00251	-0.00280	-0.00316	-0.00329	-0.00377	-0.00392	-0.00441		; offset and temperature correction info
a715	Brown	18.59217		0.01171	0.01109	0.01043	0.00975	0.00878	0.00789	0.00685	0.00572	0.00469	0.00356	0.00255	0.00160	0.00061	0.00000	-0.00063	-0.00113	-0.00152	-0.00183	-0.00226	-0.00293	-0.00364	-0.00404	-0.00473		; offset and temperature correction info
c510	Red	18.18396		-0.00549	-0.00480	-0.00383	-0.00272	-0.00202	-0.00118	-0.00044	-0.00038	-0.00015	-0.00021	0.00013	0.00007	-0.00007	0.00000	-0.00007	-0.00065	-0.00045	-0.00018	0.00007	0.00039	-0.00001	-0.00002	-0.00045		; offset and temperature correction info
c532	Magenta	18.26528		-0.00721	-0.00645	-0.00581	-0.00518	-0.00465	-0.00345	-0.00281	-0.00270	-0.00182	-0.00141	-0.00108	-0.00072	-0.00022	0.00000	0.00044	0.00030	0.00031	-0.00006	-0.00052	-0.00089	-0.00142	-0.00149	-0.00154		; offset and temperature correction info
c555	Black	18.37125		-0.00430	-0.00419	-0.00381	-0.00319	-0.00286	-0.00254	-0.00205	-0.00196	-0.00138	-0.00137	-0.00067	-0.00051	-0.00030	0.00000	0.00067	0.00087	0.00057	0.00027	-0.00015	-0.00089	-0.00127	-0.00137	-0.00150		; offset and temperature correction info
a412	LtBlue	15.33566		-0.06011	-0.05567	-0.05012	-0.04441	-0.03922	-0.03412	-0.02941	-0.02503	-0.02049	-0.01588	-0.01121	-0.00784	-0.00311	0.00000	0.00273	0.00611	0.00757	0.00871	0.01066	0.01299	0.01539	0.01781	0.02175		; offset and temperature correction info
a440	LtGreen	16.05925		-0.01380	-0.01214	-0.01039	-0.00858	-0.00690	-0.00532	-0.00426	-0.00322	-0.00230	-0.00158	-0.00055	0.00006	0.00001	0.00000	0.00017	0.00016	-0.00094	-0.00222	-0.00363	-0.00486	-0.00567	-0.00651	-0.00782		; offset and temperature correction info
a488	Yellow	16.82827		0.00255	0.00293	0.00331	0.00354	0.00373	0.00378	0.00363	0.00350	0.00291	0.00225	0.00215	0.00142	0.00099	0.00000	-0.00092	-0.00169	-0.00295	-0.00396	-0.00479	-0.00542	-0.00582	-0.00604	-0.00663		; offset and temperature correction info
c650	Blue	18.49287		-0.00570	-0.00516	-0.00456	-0.00403	-0.00346	-0.00232	-0.00132	-0.00122	-0.00073	-0.00066	-0.00035	-0.00016	0.00003	0.00000	0.00044	0.00078	0.00108	0.00057	0.00040	-0.00042	-0.00033	-0.00029	-0.00034		; offset and temperature correction info
c676	Green	18.50570		0.00299	0.00293	0.00287	0.00293	0.00278	0.00294	0.00317	0.00251	0.00243	0.00215	0.00139	0.00123	0.00068	0.00000	-0.00041	-0.00106	-0.00205	-0.00268	-0.00325	-0.00413	-0.00495	-0.00610	-0.00674		; offset and temperature correction info
c715	Brown	17.88888		0.00826	0.00812	0.00773	0.00790	0.00766	0.00758	0.00753	0.00650	0.00571	0.00461	0.00359	0.00222	0.00101	0.00000	-0.00146	-0.00284	-0.00385	-0.00448	-0.00463	-0.00513	-0.00623	-0.00715	-0.00838		; offset and temperature correction info
a510	Red	17.18050		0.00353	0.00364	0.00354	0.00361	0.00381	0.00381	0.00356	0.00332	0.00277	0.00229	0.00176	0.00116	0.00036	0.00000	-0.00014	-0.00069	-0.00088	-0.00147	-0.00150	-0.00129	-0.00120	-0.00134	-0.00091		; offset and temperature correction info
a532	Magenta	17.40228		0.00550	0.00548	0.00526	0.00479	0.00464	0.00422	0.00393	0.00328	0.00253	0.00212	0.00136	0.00085	0.00039	0.00000	-0.00059	-0.00146	-0.00188	-0.00262	-0.00330	-0.00393	-0.00491	-0.00540	-0.00605		; offset and temperature correction info
a555	Black	17.72308		0.00849	0.00832	0.00800	0.00760	0.00724	0.00655	0.00580	0.00495	0.00435	0.00347	0.00252	0.00153	0.00049	0.00000	-0.00050	-0.00155	-0.00214	-0.00306	-0.00350	-0.00411	-0.00470	-0.00539	-0.00570		; offset and temperature correction info
c412	LtBlue	16.72802		-0.05949	-0.05458	-0.04744	-0.04134	-0.03547	-0.03064	-0.02511	-0.02047	-0.01574	-0.01163	-0.00761	-0.00442	-0.00204	0.00000	0.00100	0.00051	-0.00043	-0.00239	-0.00475	-0.00629	-0.00827	-0.00955	-0.01337		; offset and temperature correction info
c440	LtGreen	17.42637		-0.02723	-0.02503	-0.02216	-0.01930	-0.01691	-0.01394	-0.01125	-0.00926	-0.00732	-0.00582	-0.00401	-0.00226	-0.00093	0.00000	0.00082	0.00123	0.00133	0.00097	0.00038	-0.00003	-0.00022	-0.00023	-0.00125		; offset and temperature correction info
c488	Yellow	18.03666		-0.00640	-0.00554	-0.00465	-0.00357	-0.00276	-0.00154	-0.00067	-0.00031	-0.00014	-0.00012	0.00046	0.00032	0.00020	0.00000	0.00001	-0.00024	-0.00060	-0.00084	-0.00126	-0.00180	-0.00276	-0.00304	-0.00427		; offset and temperature correction info
0.003500	0.004000	0.015000	0.020000	0.015000	0.020000	2500.000000	2000.000000	1000.000000	; maxANoise	maxCNoise	maxADifference	maxCDifference	minACounts	minCCounts	minRCounts	maxTempSdev	maxDepthSdev
0			; auxilliary capabilities
1			; acquisition binsize
0	2.09327	1.94326	1.71300	8.31834	7.54249	6.91342	16.54812	10.38782	5.81841	5.77573	5.67252	5.42531	4.72720	3.91865	3.31505	19.97729	13.88530	9.38257	33.13	6.1	0.00	-2.04	0.01732	0.01199	0.01517	0.01830	0.01893	0.01481	0.00544	0.01510	0.02005	0.01870	0.01299	0.01655	0.01704	0.01763	0.01377	0.00570	0.01606	0.02149
160	2.10077	1.94606	1.71722	8.32549	7.54778	6.91933	16.53785	10.38892	5.82143	5.78021	5.67798	5.42952	4.72694	3.91792	3.31396	19.98322	13.88580	9.38103
330	2.09641	1.94343	1.71504	8.32184	7.54632	6.91744	16.53439	10.39051	5.81743	5.77943	5.67742	5.43074	4.72524	3.91244	3.31015	19.97180	13.88179	9.37958
490	2.09473	1.94243	1.71421	8.32059	7.54727	6.91775	16.52438	10.38805	5.81742	5.78178	5.68078	5.43448	4.72610	3.91627	3.31079	19.97382	13.88564	9.38320
660	2.09571	1.94036	1.71267	8.32234	7.54657	6.91639	16.55580	10.38563	5.81455	5.78067	5.68001	5.43335	4.72458	3.91703	3.31321	19.97224	13.88819	9.38868
820	2.09574	1.94414	1.71360	8.32823	7.55055	6.92043	16.55023	10.38758	5.81786	5.78506	5.68457	5.43744	4.72509	3.91399	3.30835	19.98149	13.88728	9.38565
990	2.09676	1.94687	1.71666	8.33016	7.55407	6.92603	16.55927	10.39384	5.81983	5.78952	5.68889	5.44276	4.72841	3.91897	3.31540	19.99263	13.89411	9.39283
1150	2.09605	1.94340	1.71297	8.33138	7.55371	6.92419	16.52660	10.38572	5.81810	5.78832	5.68706	5.44223	4.72539	3.91592	3.31065	19.99466	13.89160	9.39136
1310	2.09419	1.94391	1.71185	8.33082	7.55368	6.92443	16.54243	10.38813	5.81599	5.78867	5.68718	5.44405	4.72306	3.91291	3.31240	19.98713	13.89322	9.39444
1480	2.09393	1.94336	1.71517	8.33374	7.55513	6.92657	16.54020	10.38467	5.81769	5.79085	5.69127	5.44644	4.72401	3.91591	3.30884	19.99871	13.89593	9.39541
1650	2.09555	1.94117	1.71145	8.33516	7.55680	6.92704	16.53585	10.38678	5.81314	5.78998	5.69132	5.44649	4.72459	3.91727	3.31340	20.00084	13.90443	9.40284	33.19	6.1	0.00	-2.04	0.01732	0.01199	0.01517	0.01830	0.01893	0.01481	0.00544	0.01510	0.02004	0.01870	0.01299	0.01655	0.01704	0.01762	0.01376	0.00570	0.01606	0.02150
1810	2.09649	1.94395	1.71628	8.34138	7.56358	6.93424	16.54291	10.39150	5.81764	5.79566	5.69752	5.45237	4.72412	3.91468	3.30855	20.00171	13.90130	9.40127
1970	2.09240	1.94458	1.71459	8.33865	7.56121	6.93122	16.54848	10.39041	5.81568	5.79486	5.69506	5.45300	4.72212	3.91221	3.30827	19.98622	13.89862	9.40010
2140	2.09452	1.94424	1.71475	8.34206	7.56633	6.93577	16.54056	10.39030	5.82070	5.79720	5.69826	5.45628	4.72238	3.91571	3.30916	19.99737	13.90300	9.40370
2300	2.09285	1.94138	1.71133	8.34216	7.56498	6.93390	16.55158	10.38452	5.81558	5.79648	5.69708	5.45583	4.72303	3.91508	3.31134	19.99867	13.90550	9.40794
2470	2.09490	1.94402	1.71477	8.34565	7.56821	6.93746	16.54563	10.38965	5.81600	5.79913	5.70035	5.45835	4.72644	3.91676	3.31525	19.99853	13.90986	9.41155
2630	2.09689	1.94517	1.71560	8.35110	7.57394	6.94231	16.56472	10.38962	5.81984	5.80278	5.70373	5.46197	4.72509	3.91718	3.31099	19.99592	13.90866	9.41038
2800	2.09420	1.94380	1.71320	8.34936	7.57236	6.94097	16.55666	10.38665	5.81586	5.80193	5.70328	5.46257	4.72279	3.91283	3.30824	19.99186	13.90535	9.41142
2960	2.09448	1.94179	1.71254	8.34985	7.57216	6.94131	16.55294	10.38242	5.81499	5.80197	5.70434	5.46290	4.72379	3.91843	3.31125	20.00447	13.91200	9.41462
3130	2.09687	1.94430	1.71508	8.35557	7.57838	6.94633	16.53833	10.39567	5.81927	5.80544	5.70796	5.46698	4.72538	3.91398	3.30832	20.00200	13.91101	9.41554
3290	2.09429	1.94326	1.71517	8.35605	7.57962	6.94952	16.53448	10.38593	5.81618	5.80708	5.71011	5.47000	4.72334	3.91249	3.30968	20.00804	13.91472	9.41803	33.19	6.2	0.00	-2.04	0.01732	0.01198	0.01517	0.01830	0.01894	0.01481	0.00544	0.01510	0.02004	0.01870	0.01299	0.01655	0.01704	0.01762	0.01376	0.00570	0.01607	0.02150
3450	2.09547	1.94097	1.71318	8.35686	7.57943	6.94708	16.55987	10.38678	5.81418	5.80561	5.70726	5.46779	4.72296	3.91516	3.30908	20.00282	13.91694	9.42054
3620	2.09594	1.94165	1.71427	8.36174	7.58261	6.95119	16.55665	10.38182	5.81460	5.80785	5.71053	5.47086	4.72168	3.91386	3.30925	20.00137	13.91292	9.41885
3780	2.09336	1.94038	1.71621	8.36030	7.58284	6.95219	16.53782	10.38857	5.81469	5.80824	5.71151	5.47222	4.72375	3.91230	3.30864	20.00572	13.91605	9.42216
3950	2.09414	1.94086	1.71385	8.36351	7.58564	6.95281	16.52916	10.38533	5.81536	5.80906	5.71148	5.47424	4.72146	3.91535	3.30830	20.01993	13.91848	9.42445
4110	2.09475	1.94287	1.71502	8.36453	7.58745	6.95583	16.53485	10.38817	5.81464	5.81041	5.71285	5.47524	4.72156	3.91127	3.30735	20.00905	13.91605	9.42300
4280	2.09587	1.94367	1.71561	8.36708	7.58942	6.95919	16.52360	10.38643	5.81517	5.81279	5.71457	5.47710	4.72373	3.91403	3.30581	20.00094	13.91767	9.42694
4440	2.09369	1.94105	1.71438	8.36730	7.58901	6.95820	16.53807	10.38687	5.81638	5.81181	5.71545	5.47788	4.72262	3.91551	3.31019	20.02095	13.92313	9.43044
4610	2.09606	1.94360	1.71649	8.37089	7.59423	6.96262	16.56198	10.38759	5.81699	5.81542	5.71771	5.47963	4.72280	3.91536	3.30824	20.00442	13.92499	9.43057
4770	2.09667	1.94506	1.71552	8.37307	7.59569	6.96408	16.53597	10.38475	5.81644	5.81671	5.71859	5.48188	4.72125	3.91541	3.30643	20.02371	13.92363	9.43186
4940	2.09594	1.94589	1.71373	8.37496	7.59709	6.96725	16.53932	10.38671	5.81892	5.81868	5.72125	5.48380	4.72167	3.91476	3.30666	20.02965	13.92661	9.43433	33.08	6.2	0.00	-2.04	0.01732	0.01198	0.01517	0.01830	0.01894	0.01481	0.00544	0.01510	0.02004	0.01870	0.01299	0.01655	0.01704	0.01762	0.01376	0.00570	0.01607	0.02150
5100	2.09397	1.94398	1.71391	8.37504	7.59600	6.96584	16.53078	10.38651	5.81253	5.81674	5.71784	5.48246	4.72201	3.91345	3.31232	20.02152	13.92941	9.43541
5270	2.09583	1.94257	1.71455	8.37778	7.60060	6.96963	16.54972	10.38588	5.81477	5.82072	5.72171	5.48609	4.72361	3.91479	3.30882	20.02617	13.92910	9.43731
5430	2.09629	1.94312	1.71458	8.37969	7.60176	6.97003	16.55294	10.38449	5.81465	5.81984	5.72197	5.48678	4.72414	3.91642	3.30923	20.02355	13.93224	9.43890
5600	2.09711	1.94225	1.71755	8.38246	7.60444	6.97228	16.57901	10.38423	5.81769	5.82269	5.72383	5.48843	4.72198	3.91086	3.30944	20.02341	13.93184	9.43849
5770	2.09435	1.94359	1.71640	8.38156	7.60579	6.97675	16.56957	10.38908	5.81805	5.82668	5.72919	5.49195	4.72422	3.91523	3.31012	20.03270	13.93629	9.44211
5930	2.09619	1.94246	1.71541	8.38563	7.60732	6.97585	16.53808	10.38566	5.81763	5.82362	5.72647	5.49052	4.72270	3.91311	3.30953	20.03372	13.93574	9.44193
6090	2.09445	1.94307	1.71430	8.38415	7.60778	6.97735	16.54638	10.38821	5.81429	5.82441	5.72569	5.49091	4.72192	3.91625	3.30733	20.02617	13.93820	9.44399
6260	2.09383	1.94413	1.71383	8.38608	7.61040	6.97956	16.53920	10.38221	5.81390	5.82663	5.72771	5.49263	4.72263	3.91199	3.30821	20.03358	13.93692	9.44246
6420	2.09655	1.94315	1.71466	8.38967	7.61357	6.98301	16.54948	10.38510	5.81566	5.82981	5.73065	5.49636	4.72376	3.91333	3.30904	20.03910	13.93831	9.44622
6590	2.09301	1.94181	1.71591	8.38853	7.61278	6.98229	16.52823	10.38215	5.81521	5.82770	5.72863	5.49399	4.72329	3.91687	3.31350	20.04051	13.94386	9.45016	33.19	6.1	0.00	-2.04	0.01732	0.01198	0.01517	0.01830	0.01894	0.01481	0.00544	0.01510	0.02004	0.01870	0.01299	0.01655	0.01704	0.01762	0.01376	0.00570	0.01607	0.02150
6760	2.09685	1.94567	1.71657	8.39343	7.61795	6.98632	16.55881	10.38783	5.81738	5.83121	5.73205	5.49724	4.72575	3.91372	3.30952	20.02932	13.94316	9.44831
6920	2.09452	1.94232	1.71548	8.39298	7.61866	6.98664	16.53516	10.38691	5.81551	5.83245	5.73313	5.49868	4.72156	3.91316	3.30976	20.03658	13.94114	9.44897
7090	2.09475	1.94493	1.71631	8.39569	7.62104	6.98991	16.53355	10.39009	5.81779	5.83550	5.73648	5.50142	4.72409	3.91513	3.31121	20.04429	13.94585	9.45211
7250	2.09599	1.94193	1.71561	8.39491	7.62051	6.98914	16.55857	10.38696	5.81549	5.83365	5.73465	5.49985	4.72351	3.91508	3.31444	20.04633	13.94960	9.45609
7420	2.09869	1.94490	1.71639	8.39958	7.62438	6.99433	16.55435	10.39291	5.81605	5.83724	5.73667	5.50199	4.72438	3.91553	3.30946	20.05812	13.94682	9.45348
7580	2.09424	1.94161	1.71511	8.39921	7.62448	6.99479	16.55510	10.38150	5.81532	5.83817	5.73764	5.50307	4.72400	3.91320	3.30692	20.04036	13.94871	9.45479
7740	2.09268	1.94132	1.71376	8.40287	7.63027	6.99828	16.55559	10.39166	5.81489	5.84088	5.74364	5.50659	4.72075	3.91062	3.30767	20.06162	13.95448	9.45925
7910	2.09298	1.93689	1.71026	8.40477	7.62926	6.99883	16.54642	10.37506	5.80251	5.84095	5.74264	5.50696	4.71242	3.90352	3.29608	20.05725	13.95655	9.46385
8070	2.08480	1.92993	1.70625	8.41138	7.63787	7.00831	16.52440	10.36202	5.79679	5.84676	5.75050	5.51364	4.70025	3.89281	3.28876	20.04793	13.96473	9.46880
8240	2.07812	1.92950	1.70365	8.41461	7.64362	7.01461	16.56134	10.36930	5.79689	5.85171	5.75505	5.51822	4.70667	3.89511	3.29278	20.06268	13.97086	9.47454	33.19	6.1	0.00	-2.04	0.01733	0.01199	0.01517	0.01829	0.01893	0.01481	0.00545	0.01511	0.02005	0.01869	0.01299	0.01655	0.01705	0.01763	0.01377	0.00570	0.01606	0.02149
8400	2.08154	1.92911	1.70059	8.42258	7.64731	7.01596	16.50523	10.36140	5.79099	5.85168	5.75541	5.51784	4.70005	3.89203	3.28997	20.07188	13.97188	9.47496
8570	2.07886	1.92705	1.69877	8.42314	7.64793	7.01645	16.53374	10.36345	5.79265	5.85261	5.75493	5.51830	4.70330	3.89853	3.29424	20.06137	13.97325	9.47741
8730	2.08332	1.93138	1.70445	8.42552	7.65134	7.01929	16.52151	10.36977	5.79737	5.85626	5.75884	5.51984	4.70318	3.89278	3.29329	20.06123	13.97617	9.47688
8900	2.07935	1.92973	1.70193	8.42459	7.65026	7.02000	16.52534	10.36419	5.79530	5.85692	5.75944	5.52061	4.70107	3.89595	3.29343	20.05379	13.97362	9.47658
9070	2.08127	1.93135	1.70556	8.42686	7.65377	7.02399	16.53572	10.36593	5.80338	5.86086	5.76137	5.52373	4.70820	3.89993	3.29489	20.07961	13.97790	9.48015
9230	2.08389	1.92901	1.70389	8.42611	7.65252	7.02308	16.51571	10.36425	5.79599	5.85961	5.76002	5.52241	4.70221	3.89576	3.28935	20.07246	13.97638	9.47943
9400	2.07947	1.92684	1.69942	8.42576	7.65165	7.02303	16.52707	10.36292	5.79480	5.85874	5.76019	5.52193	4.70272	3.89538	3.29267	20.07085	13.97885	9.48135
9560	2.07993	1.92837	1.70396	8.42741	7.65319	7.02601	16.51176	10.36579	5.79806	5.86247	5.76273	5.52475	4.70303	3.89500	3.29055	20.07421	13.97809	9.48085
9730	2.08053	1.93188	1.70511	8.43015	7.65674	7.02997	16.52954	10.36847	5.80182	5.86599	5.76580	5.52767	4.70663	3.89928	3.29242	20.07144	13.98182	9.48556
9890	2.08516	1.93247	1.70494	8.42755	7.65343	7.02710	16.52364	10.36607	5.79982	5.86254	5.76231	5.52485	4.71114	3.90315	3.30021	20.08905	13.98196	9.48432	33.19	6.1	0.00	-2.04	0.01734	0.01200	0.01518	0.01829	0.01893	0.01480	0.00545	0.01512	0.02006	0.01869	0.01299	0.01654	0.01705	0.01764	0.01378	0.00570	0.01606	0.02148
10050	2.08540	1.93543	1.70671	8.42863	7.65502	7.02672	16.51389	10.36738	5.80285	5.86495	5.76398	5.52501	4.70793	3.89832	3.29354	20.07648	13.97888	9.48197
10220	2.08254	1.92947	1.70369	8.42747	7.65421	7.02793	16.51192	10.37015	5.79920	5.86529	5.76470	5.52618	4.71110	3.89933	3.29759	20.07414	13.97917	9.48143
10380	2.08440	1.93203	1.70267	8.42656	7.65259	7.02777	16.51648	10.36540	5.79797	5.86385	5.76238	5.52414	4.70823	3.89793	3.29894	20.07151	13.98096	9.48350
10550	2.08542	1.93484	1.70568	8.42977	7.65639	7.03093	16.54117	10.37115	5.80352	5.86810	5.76631	5.52758	4.71091	3.90130	3.29979	20.07750	13.98233	9.48485
10710	2.08619	1.93492	1.70379	8.42937	7.65718	7.03143	16.50896	10.36776	5.80102	5.86899	5.76820	5.52848	4.70987	3.90200	3.29892	20.08320	13.98751	9.48704
10880	2.08489	1.93626	1.70829	8.43292	7.66037	7.03306	16.51636	10.37383	5.80297	5.87249	5.76941	5.53027	4.70893	3.90199	3.29861	20.07327	13.98430	9.48738
11050	2.08481	1.93703	1.70776	8.43195	7.66214	7.03688	16.52055	10.37620	5.80488	5.87643	5.77377	5.53316	4.71055	3.90664	3.29934	20.09227	13.99009	9.49072
11210	2.08727	1.93462	1.70657	8.43416	7.66178	7.03540	16.51451	10.37316	5.80376	5.87472	5.77260	5.53196	4.71084	3.90145	3.29730	20.07736	13.99012	9.48987
11380	2.08582	1.93277	1.70644	8.43320	7.66166	7.03521	16.49628	10.37057	5.79974	5.87557	5.77255	5.53124	4.71258	3.90468	3.29777	20.08203	13.99330	9.49353
11540	2.08762	1.93885	1.70769	8.43492	7.66144	7.03657	16.53448	10.37435	5.80687	5.87669	5.77336	5.53213	4.71180	3.90484	3.29972	20.08799	13.98988	9.48794	33.13	5.9	0.00	-2.04	0.01734	0.01200	0.01518	0.01829	0.01892	0.01480	0.00545	0.01512	0.02007	0.01869	0.01299	0.01654	0.01706	0.01764	0.01378	0.00570	0.01605	0.02148
11710	2.08762	1.93969	1.71261	8.43636	7.66434	7.04162	16.52868	10.37491	5.80970	5.88126	5.77752	5.53709	4.71719	3.90647	3.30297	20.08580	13.99222	9.49377
11870	2.08928	1.93653	1.70952	8.43726	7.66372	7.03981	16.52597	10.37585	5.80328	5.87940	5.77541	5.53547	4.71095	3.90426	3.29784	20.09223	13.99457	9.49263
12030	2.08662	1.93766	1.70943	8.43672	7.66420	7.03919	16.52720	10.37108	5.80443	5.88146	5.77639	5.53547	4.71287	3.90344	3.29906	20.10058	13.99673	9.49397
12200	2.08815	1.93710	1.70963	8.43779	7.66579	7.04190	16.50748	10.37487	5.80418	5.88267	5.77847	5.53666	4.71355	3.90434	3.29856	20.08682	13.99562	9.49361
12360	2.08968	1.93854	1.71018	8.43957	7.66789	7.04435	16.53399	10.37469	5.80557	5.88671	5.78040	5.53967	4.71432	3.90492	3.30020	20.10028	13.99797	9.49619
12530	2.08796	1.93813	1.70961	8.43929	7.66627	7.04363	16.52806	10.37246	5.80602	5.88511	5.78247	5.53836	4.71327	3.90596	3.30182	20.10263	14.00153	9.49962
12700	2.08979	1.93977	1.70996	8.44265	7.67002	7.04600	16.52042	10.37685	5.80579	5.88872	5.78327	5.54225	4.71362	3.90365	3.30030	20.08507	13.99726	9.49774
12860	2.09065	1.93855	1.71260	8.44410	7.67217	7.04930	16.53955	10.37960	5.81104	5.89260	5.78615	5.54391	4.71609	3.90668	3.30297	20.10043	14.00374	9.50269
13020	2.08902	1.93550	1.70972	8.44481	7.67151	7.04742	16.54437	10.37487	5.80310	5.88998	5.78563	5.54355	4.71181	3.90295	3.29701	20.09838	14.00229	9.49994
13190	2.08745	1.93917	1.71000	8.44127	7.66817	7.04564	16.55360	10.37313	5.80660	5.88951	5.78478	5.54153	4.71325	3.90732	3.30136	20.09980	14.00289	9.50057	33.13	6.1	0.00	-2.04	0.01734	0.01200	0.01518	0.01828	0.01892	0.01480	0.00545	0.01513	0.02008	0.01869	0.01298	0.01654	0.01706	0.01765	0.01378	0.00570	0.01605	0.02148
13350	2.08929	1.93868	1.71272	8.44362	7.67206	7.04839	16.53815	10.37317	5.80549	5.89139	5.78552	5.54482	4.71417	3.90897	3.30606	20.08370	14.00532	9.50338
13520	2.09272	1.94023	1.71390	8.44773	7.67435	7.04956	16.52901	10.37581	5.80975	5.89394	5.78891	5.54609	4.70962	3.90397	3.30016	20.09863	14.00366	9.50183
13680	2.08742	1.93942	1.71242	8.44608	7.67475	7.05139	16.54111	10.37978	5.81097	5.89720	5.79257	5.54956	4.71646	3.90834	3.30179	20.11461	14.00677	9.50663
