WetView ver 7.1	07-17-2019	12:15:14
AC9 Absorption and Attenuation Meter
00000311		; Serial number
2	; structure version number
Reserved
0.000000	0.000000		; Depth calibration
19200			; Baud rate
0.100000			; Path length (meters)
23			; number of temperature calibration bins
				12.61517	13.44096	14.46844	15.49904	16.50682	17.50108	18.49752	19.51783	20.49177	21.49009	22.48286	23.50673	24.54012	25.54812	26.49986	27.49321	28.50960	29.48671	30.47471	31.49432	32.50437	33.48679	34.49133	; temperature bins
a650	Blue	18.61587		0.01156	0.01096	0.01010	0.00930	0.00851	0.00774	0.00661	0.00573	0.00499	0.00402	0.00285	0.00203	0.00096	0.00000	-0.00110	-0.00152	-0.00210	-0.00247	-0.00259	-0.00317	-0.00346	-0.00380	-0.00403		; offset and temperature correction info
a676	Green	18.78942		0.00964	0.00899	0.00863	0.00813	0.00730	0.00639	0.00545	0.00448	0.00385	0.00301	0.00233	0.00165	0.00046	0.00000	-0.00106	-0.00167	-0.00251	-0.00280	-0.00316	-0.00329	-0.00377	-0.00392	-0.00441		; offset and temperature correction info
a715	Brown	18.59217		0.01171	0.01109	0.01043	0.00975	0.00878	0.00789	0.00685	0.00572	0.00469	0.00356	0.00255	0.00160	0.00061	0.00000	-0.00063	-0.00113	-0.00152	-0.00183	-0.00226	-0.00293	-0.00364	-0.00404	-0.00473		; offset and temperature correction info
c510	Red	18.18396		-0.00549	-0.00480	-0.00383	-0.00272	-0.00202	-0.00118	-0.00044	-0.00038	-0.00015	-0.00021	0.00013	0.00007	-0.00007	0.00000	-0.00007	-0.00065	-0.00045	-0.00018	0.00007	0.00039	-0.00001	-0.00002	-0.00045		; offset and temperature correction info
c532	Magenta	18.26528		-0.00721	-0.00645	-0.00581	-0.00518	-0.00465	-0.00345	-0.00281	-0.00270	-0.00182	-0.00141	-0.00108	-0.00072	-0.00022	0.00000	0.00044	0.00030	0.00031	-0.00006	-0.00052	-0.00089	-0.00142	-0.00149	-0.00154		; offset and temperature correction info
c555	Black	18.37125		-0.00430	-0.00419	-0.00381	-0.00319	-0.00286	-0.00254	-0.00205	-0.00196	-0.00138	-0.00137	-0.00067	-0.00051	-0.00030	0.00000	0.00067	0.00087	0.00057	0.00027	-0.00015	-0.00089	-0.00127	-0.00137	-0.00150		; offset and temperature correction info
a412	LtBlue	15.33566		-0.06011	-0.05567	-0.05012	-0.04441	-0.03922	-0.03412	-0.02941	-0.02503	-0.02049	-0.01588	-0.01121	-0.00784	-0.00311	0.00000	0.00273	0.00611	0.00757	0.00871	0.01066	0.01299	0.01539	0.01781	0.02175		; offset and temperature correction info
a440	LtGreen	16.05925		-0.01380	-0.01214	-0.01039	-0.00858	-0.00690	-0.00532	-0.00426	-0.00322	-0.00230	-0.00158	-0.00055	0.00006	0.00001	0.00000	0.00017	0.00016	-0.00094	-0.00222	-0.00363	-0.00486	-0.00567	-0.00651	-0.00782		; offset and temperature correction info
a488	Yellow	16.82827		0.00255	0.00293	0.00331	0.00354	0.00373	0.00378	0.00363	0.00350	0.00291	0.00225	0.00215	0.00142	0.00099	0.00000	-0.00092	-0.00169	-0.00295	-0.00396	-0.00479	-0.00542	-0.00582	-0.00604	-0.00663		; offset and temperature correction info
c650	Blue	18.49287		-0.00570	-0.00516	-0.00456	-0.00403	-0.00346	-0.00232	-0.00132	-0.00122	-0.00073	-0.00066	-0.00035	-0.00016	0.00003	0.00000	0.00044	0.00078	0.00108	0.00057	0.00040	-0.00042	-0.00033	-0.00029	-0.00034		; offset and temperature correction info
c676	Green	18.50570		0.00299	0.00293	0.00287	0.00293	0.00278	0.00294	0.00317	0.00251	0.00243	0.00215	0.00139	0.00123	0.00068	0.00000	-0.00041	-0.00106	-0.00205	-0.00268	-0.00325	-0.00413	-0.00495	-0.00610	-0.00674		; offset and temperature correction info
c715	Brown	17.88888		0.00826	0.00812	0.00773	0.00790	0.00766	0.00758	0.00753	0.00650	0.00571	0.00461	0.00359	0.00222	0.00101	0.00000	-0.00146	-0.00284	-0.00385	-0.00448	-0.00463	-0.00513	-0.00623	-0.00715	-0.00838		; offset and temperature correction info
a510	Red	17.18050		0.00353	0.00364	0.00354	0.00361	0.00381	0.00381	0.00356	0.00332	0.00277	0.00229	0.00176	0.00116	0.00036	0.00000	-0.00014	-0.00069	-0.00088	-0.00147	-0.00150	-0.00129	-0.00120	-0.00134	-0.00091		; offset and temperature correction info
a532	Magenta	17.40228		0.00550	0.00548	0.00526	0.00479	0.00464	0.00422	0.00393	0.00328	0.00253	0.00212	0.00136	0.00085	0.00039	0.00000	-0.00059	-0.00146	-0.00188	-0.00262	-0.00330	-0.00393	-0.00491	-0.00540	-0.00605		; offset and temperature correction info
a555	Black	17.72308		0.00849	0.00832	0.00800	0.00760	0.00724	0.00655	0.00580	0.00495	0.00435	0.00347	0.00252	0.00153	0.00049	0.00000	-0.00050	-0.00155	-0.00214	-0.00306	-0.00350	-0.00411	-0.00470	-0.00539	-0.00570		; offset and temperature correction info
c412	LtBlue	16.72802		-0.05949	-0.05458	-0.04744	-0.04134	-0.03547	-0.03064	-0.02511	-0.02047	-0.01574	-0.01163	-0.00761	-0.00442	-0.00204	0.00000	0.00100	0.00051	-0.00043	-0.00239	-0.00475	-0.00629	-0.00827	-0.00955	-0.01337		; offset and temperature correction info
c440	LtGreen	17.42637		-0.02723	-0.02503	-0.02216	-0.01930	-0.01691	-0.01394	-0.01125	-0.00926	-0.00732	-0.00582	-0.00401	-0.00226	-0.00093	0.00000	0.00082	0.00123	0.00133	0.00097	0.00038	-0.00003	-0.00022	-0.00023	-0.00125		; offset and temperature correction info
c488	Yellow	18.03666		-0.00640	-0.00554	-0.00465	-0.00357	-0.00276	-0.00154	-0.00067	-0.00031	-0.00014	-0.00012	0.00046	0.00032	0.00020	0.00000	0.00001	-0.00024	-0.00060	-0.00084	-0.00126	-0.00180	-0.00276	-0.00304	-0.00427		; offset and temperature correction info
0.003500	0.004000	0.015000	0.020000	0.015000	0.020000	2500.000000	2000.000000	1000.000000	; maxANoise	maxCNoise	maxADifference	maxCDifference	minACounts	minCCounts	minRCounts	maxTempSdev	maxDepthSdev
0			; auxilliary capabilities
1			; acquisition binsize
0	2.60720	2.61555	2.21653	14.49710	13.70958	12.91151	12.82056	8.75017	5.50949	11.22654	10.94811	10.46423	4.63980	3.95457	3.40205	23.47379	18.99503	15.42773	36.98	6.0	0.00	-2.04	0.01727	0.01197	0.01516	0.01816	0.01878	0.01469	0.00546	0.01514	0.02002	0.01848	0.01282	0.01634	0.01704	0.01760	0.01375	0.00570	0.01604	0.02133
160	2.60499	2.61741	2.21671	14.50120	13.71521	12.91517	12.82891	8.75222	5.50789	11.23188	10.95553	10.47327	4.64376	3.95522	3.39985	23.50414	19.00220	15.43636
320	2.60324	2.61657	2.21468	14.50627	13.71574	12.91865	12.83488	8.74624	5.50644	11.22986	10.95682	10.47489	4.64038	3.95335	3.40194	23.49736	19.00468	15.44194
490	2.60640	2.61678	2.21541	14.50988	13.72154	12.92291	12.82320	8.75165	5.50779	11.23604	10.96147	10.47569	4.64263	3.95473	3.40333	23.48608	19.00037	15.44250
650	2.60722	2.61917	2.21417	14.51440	13.72440	12.92556	12.82243	8.74624	5.50576	11.23943	10.96427	10.47755	4.64286	3.95651	3.40385	23.51092	19.01848	15.45282
820	2.60953	2.61729	2.21768	14.52013	13.73306	12.93194	12.83505	8.74862	5.51052	11.24418	10.96744	10.48178	4.64234	3.95750	3.39901	23.50475	19.01347	15.45416
980	2.60631	2.61697	2.21729	14.52264	13.73272	12.93653	12.82243	8.74881	5.50686	11.24385	10.97096	10.48755	4.64125	3.95496	3.40111	23.52305	19.01974	15.45618
1150	2.60564	2.61747	2.21344	14.52612	13.73714	12.93887	12.84511	8.74257	5.50301	11.25006	10.97398	10.49399	4.64001	3.95386	3.40192	23.52613	19.03395	15.46529
1310	2.60680	2.61862	2.21454	14.53548	13.74539	12.94605	12.82942	8.74625	5.50575	11.25483	10.98006	10.49599	4.63881	3.95281	3.40002	23.51832	19.03012	15.46300
1480	2.60397	2.61494	2.21530	14.53611	13.74367	12.94733	12.82533	8.74338	5.50615	11.26034	10.98280	10.50225	4.63623	3.95192	3.40122	23.52366	19.03395	15.46881
1640	2.60615	2.61825	2.21614	14.53395	13.74540	12.94421	12.82316	8.74997	5.50736	11.25230	10.98001	10.49544	4.64175	3.95527	3.40064	23.53199	19.03330	15.46206	36.92	6.1	0.00	-2.04	0.01727	0.01198	0.01516	0.01816	0.01878	0.01469	0.00546	0.01514	0.02002	0.01847	0.01282	0.01634	0.01704	0.01760	0.01375	0.00570	0.01604	0.02133
1810	2.60926	2.62023	2.21909	14.53721	13.74274	12.94315	12.85548	8.75698	5.51569	11.25330	10.97804	10.49632	4.64530	3.96147	3.40466	23.53096	19.03204	15.46519
1970	2.61311	2.62118	2.21877	14.53848	13.74403	12.94351	12.83688	8.76027	5.50989	11.25518	10.98437	10.49847	4.64060	3.95928	3.40584	23.53467	19.04076	15.47623
2140	2.60618	2.61511	2.21475	14.54795	13.75623	12.95655	12.81150	8.75111	5.51436	11.26541	10.99092	10.50686	4.64258	3.95564	3.40444	23.53323	19.05055	15.47837
2300	2.60943	2.61689	2.21584	14.54975	13.76025	12.96094	12.83935	8.74859	5.50859	11.27497	10.99682	10.51423	4.63700	3.95336	3.40123	23.53446	19.05247	15.48678
2460	2.60281	2.61463	2.21264	14.55440	13.76317	12.96517	12.82639	8.73930	5.50286	11.27301	10.99596	10.51367	4.63852	3.95221	3.39931	23.54972	19.05794	15.48968
2630	2.60455	2.61621	2.21457	14.55961	13.77110	12.96949	12.82035	8.74545	5.50671	11.27517	11.00369	10.52072	4.63788	3.95507	3.40128	23.54910	19.06354	15.49613
2790	2.60464	2.61606	2.21746	14.56134	13.77391	12.97249	12.83142	8.74762	5.50864	11.27865	11.00513	10.52417	4.63964	3.95380	3.39915	23.55302	19.06612	15.49836
2960	2.60382	2.61515	2.21378	14.56749	13.77551	12.97491	12.82707	8.73968	5.50463	11.28256	11.00702	10.52379	4.63813	3.95018	3.40153	23.56996	19.07006	15.50064
3120	2.60533	2.61579	2.21711	14.56710	13.77594	12.97656	12.81686	8.74688	5.50366	11.28629	11.01240	10.53000	4.63882	3.94916	3.39734	23.56231	19.07111	15.50328
3290	2.60504	2.61814	2.21707	14.56913	13.77671	12.97914	12.82755	8.74617	5.50994	11.28343	11.01155	10.52880	4.63998	3.95548	3.40144	23.56332	19.06820	15.50194	36.92	6.2	0.00	-2.04	0.01727	0.01198	0.01516	0.01816	0.01878	0.01469	0.00546	0.01515	0.02002	0.01847	0.01281	0.01633	0.01705	0.01760	0.01376	0.00570	0.01604	0.02133
3450	2.60466	2.61700	2.21479	14.56620	13.77527	12.97602	12.82406	8.75117	5.50538	11.28318	11.00951	10.52823	4.63925	3.95615	3.40419	23.56952	19.07446	15.50723
3620	2.61013	2.61692	2.21790	14.57025	13.77989	12.98470	12.83454	8.74782	5.50778	11.28792	11.01656	10.53373	4.63901	3.95362	3.40227	23.57118	19.07451	15.50799
3780	2.60909	2.61848	2.21761	14.57871	13.78970	12.99121	12.82517	8.75583	5.50994	11.29260	11.02038	10.54005	4.64241	3.95852	3.40144	23.57780	19.08621	15.51634
3950	2.60539	2.61529	2.21668	14.58050	13.78737	12.99010	12.83514	8.74538	5.50410	11.29133	11.01966	10.53811	4.63799	3.95002	3.39863	23.57407	19.08560	15.51165
4110	2.60584	2.61435	2.21448	14.57709	13.78206	12.98859	12.80552	8.74689	5.50424	11.29076	11.01777	10.53640	4.63610	3.95029	3.39962	23.54804	19.07459	15.50586
4280	2.60694	2.61784	2.21708	14.57583	13.78755	12.98982	12.83369	8.74920	5.50894	11.29400	11.01904	10.53970	4.64066	3.95456	3.40087	23.59892	19.08678	15.51399
4440	2.60668	2.61396	2.21300	14.57956	13.78528	12.99252	12.82832	8.74107	5.50105	11.29506	11.02131	10.54059	4.63909	3.95220	3.40005	23.59125	19.08647	15.51523
4600	2.60421	2.61682	2.21380	14.58006	13.79215	12.99512	12.84196	8.74267	5.50526	11.29671	11.02395	10.54280	4.63907	3.95476	3.40129	23.58235	19.09047	15.52200
4770	2.60770	2.61533	2.21675	14.58535	13.79528	12.99681	12.84205	8.74613	5.50612	11.29935	11.02395	10.54463	4.63833	3.95375	3.40013	23.57180	19.08564	15.51551
4930	2.60296	2.61696	2.21357	14.57876	13.79178	12.99419	12.81447	8.74366	5.50370	11.30128	11.02315	10.54371	4.63666	3.95004	3.39772	23.57739	19.08659	15.51586	36.98	6.2	0.00	-2.04	0.01727	0.01198	0.01516	0.01816	0.01878	0.01469	0.00546	0.01514	0.02002	0.01847	0.01281	0.01634	0.01704	0.01760	0.01375	0.00570	0.01604	0.02133
5100	2.60187	2.61453	2.21379	14.57952	13.78762	12.98914	12.82767	8.74229	5.50435	11.29373	11.01910	10.53843	4.63456	3.95155	3.40069	23.57283	19.08830	15.51479
5260	2.60641	2.61836	2.21652	14.58336	13.79545	12.99331	12.82520	8.74424	5.50341	11.30017	11.02442	10.54591	4.63683	3.95059	3.39896	23.56643	19.09037	15.51844
5430	2.60632	2.61697	2.21659	14.59033	13.79874	12.99736	12.82171	8.74967	5.50693	11.30061	11.02869	10.54964	4.63791	3.95183	3.40005	23.59457	19.09418	15.52489
5590	2.60271	2.61403	2.21029	14.58852	13.79793	13.00673	12.82478	8.73503	5.48867	11.31722	11.03738	10.56110	4.62216	3.93296	3.38168	23.60909	19.11057	15.53512
5750	2.58987	2.59876	2.19473	14.59661	13.82669	13.04226	12.78889	8.71196	5.47193	11.28616	11.05431	10.61560	4.60964	3.92842	3.37912	23.62904	19.12813	15.55844
5920	2.58621	2.59575	2.19713	14.63529	13.81227	13.02135	12.79178	8.72111	5.48593	11.32109	11.05058	10.57107	4.62263	3.94225	3.39542	23.58960	19.10696	15.52020
6100	2.60803	2.62254	2.22397	14.59179	13.80414	12.99518	12.85062	8.77972	5.54302	11.29202	11.02244	10.54082	4.67864	3.99572	3.44397	23.56911	19.07528	15.50501
6260	2.64401	2.65558	2.25272	14.57428	13.78099	12.98296	12.89042	8.81005	5.56930	11.28767	11.01875	10.54018	4.70054	4.01250	3.45765	23.53753	19.05786	15.49323
6420	2.65975	2.66923	2.26567	14.55467	13.77070	12.97856	12.90887	8.82444	5.57299	11.27457	11.01710	10.53513	4.70580	4.00572	3.45097	23.55445	19.06320	15.49405
6570	2.63923	2.64498	2.24045	14.58245	13.80361	12.98469	12.84431	8.76358	5.51347	11.32115	11.04362	10.55944	4.64321	3.94466	3.38954	23.58168	19.09677	15.53646	36.92	6.6	0.00	-2.04	0.01726	0.01197	0.01515	0.01817	0.01879	0.01470	0.00546	0.01513	0.02000	0.01848	0.01282	0.01634	0.01703	0.01759	0.01375	0.00570	0.01604	0.02134
6740	2.58914	2.59975	2.19694	14.61642	13.82941	13.02794	12.81173	8.71682	5.48328	11.33041	11.05562	10.57642	4.61814	3.93606	3.38836	23.58478	19.09673	15.52627
6910	2.60152	2.61811	2.21821	14.60662	13.82643	13.01941	12.83500	8.75711	5.51492	11.31320	11.05610	10.57337	4.65048	3.96482	3.41425	23.59493	19.08905	15.52290
7070	2.62329	2.63599	2.23489	14.59905	13.81226	13.00776	12.86337	8.78008	5.53889	11.30155	11.04151	10.56002	4.67490	3.99089	3.43563	23.57526	19.08063	15.51669
7230	2.63627	2.64576	2.24525	14.58716	13.80582	13.00157	12.86158	8.78797	5.54332	11.30314	11.04076	10.56018	4.67438	3.98461	3.43162	23.56328	19.07976	15.51797
7390	2.63252	2.64235	2.23858	14.59213	13.81313	13.01032	12.85525	8.77345	5.52750	11.31533	11.04988	10.57325	4.66075	3.97184	3.42015	23.58333	19.08695	15.52316
7560	2.62216	2.63008	2.23066	14.59612	13.81653	13.00989	12.85910	8.76806	5.52114	11.31284	11.05134	10.56896	4.65826	3.97366	3.42271	23.57692	19.09550	15.52961
7720	2.62701	2.63552	2.23567	14.60279	13.82356	13.01929	12.86474	8.77296	5.52944	11.32028	11.06038	10.57723	4.66376	3.97492	3.42154	23.60135	19.09370	15.53091
7880	2.62421	2.63147	2.23057	14.60398	13.82466	13.02093	12.85328	8.76821	5.52619	11.32313	11.06135	10.58113	4.66265	3.97358	3.42177	23.60571	19.10626	15.53785
8050	2.62652	2.63561	2.23330	14.61172	13.83179	13.02611	12.85721	8.77193	5.52732	11.32646	11.06493	10.58464	4.66084	3.97458	3.41989	23.59430	19.10397	15.53835
8210	2.61981	2.62734	2.22859	14.61070	13.83303	13.02676	12.83363	8.76308	5.51733	11.32973	11.06540	10.58689	4.65514	3.96838	3.41500	23.60137	19.11142	15.54436	36.92	6.1	0.00	-2.04	0.01725	0.01197	0.01515	0.01817	0.01879	0.01470	0.00545	0.01512	0.02000	0.01848	0.01282	0.01634	0.01702	0.01758	0.01374	0.00571	0.01605	0.02134
8370	2.62085	2.63148	2.22724	14.61883	13.84042	13.03372	12.84875	8.76492	5.52040	11.33526	11.07034	10.58922	4.65418	3.96852	3.41424	23.60158	19.11019	15.54351
8540	2.61798	2.62889	2.22556	14.61412	13.83584	13.03465	12.83781	8.75895	5.51806	11.33414	11.06780	10.58606	4.65409	3.97064	3.41725	23.60137	19.10308	15.54377
8700	2.61957	2.63119	2.22874	14.61548	13.83386	13.03275	12.85756	8.76411	5.52080	11.33531	11.06891	10.59184	4.65322	3.96963	3.41349	23.60842	19.10369	15.54227
8870	2.61912	2.62869	2.22870	14.61490	13.83535	13.03334	12.86132	8.76177	5.52263	11.33570	11.06950	10.59221	4.65455	3.96844	3.40988	23.60448	19.11024	15.54727
9030	2.61650	2.62723	2.22482	14.61389	13.83682	13.03196	12.84541	8.75777	5.51829	11.33524	11.06893	10.59455	4.64909	3.96614	3.41074	23.60469	19.10993	15.54481
9190	2.61780	2.63070	2.22818	14.62012	13.84222	13.03952	12.83269	8.76246	5.51972	11.34284	11.07668	10.59644	4.65203	3.96691	3.41394	23.62254	19.11845	15.55217
9360	2.61713	2.62717	2.22489	14.61759	13.83731	13.03983	12.84772	8.75724	5.51496	11.33436	11.07319	10.59513	4.65587	3.96594	3.41834	23.61693	19.12158	15.54892
9520	2.61857	2.63126	2.22996	14.61718	13.83354	13.03686	12.83217	8.75692	5.51808	11.34275	11.07001	10.59743	4.64939	3.96268	3.41112	23.62191	19.11147	15.54914
9690	2.61560	2.62674	2.22622	14.61681	13.84042	13.03886	12.84456	8.75931	5.51660	11.34381	11.07695	10.59862	4.64826	3.96440	3.40796	23.59972	19.11573	15.54953
9850	2.61300	2.62137	2.22359	14.61729	13.83952	13.03956	12.83672	8.75727	5.51434	11.34067	11.07460	10.59559	4.64708	3.96165	3.40795	23.59569	19.10919	15.54400	36.92	5.9	0.00	-2.04	0.01725	0.01196	0.01514	0.01817	0.01879	0.01470	0.00545	0.01512	0.01999	0.01848	0.01282	0.01634	0.01702	0.01758	0.01374	0.00571	0.01605	0.02135
10010	2.61459	2.62789	2.22691	14.61931	13.84225	13.03922	12.84441	8.75945	5.51704	11.34455	11.07601	10.59773	4.65191	3.96308	3.41192	23.61248	19.11745	15.54824
10180	2.61368	2.62474	2.22390	14.61724	13.83789	13.03787	12.85203	8.75342	5.51171	11.34312	11.07431	10.59830	4.64888	3.96182	3.40933	23.60335	19.11926	15.55090
10340	2.61334	2.62269	2.22387	14.61981	13.84107	13.03756	12.84459	8.75403	5.51377	11.34821	11.07577	10.60211	4.64347	3.95705	3.40336	23.60978	19.11697	15.54629
10510	2.61090	2.62284	2.21996	14.61447	13.83791	13.03756	12.83689	8.74826	5.50722	11.34323	11.07210	10.59729	4.64926	3.96331	3.41032	23.60646	19.12027	15.54944
10670	2.61630	2.62845	2.22524	14.61954	13.84162	13.03977	12.85725	8.75610	5.51201	11.34724	11.07906	10.60237	4.64581	3.96114	3.40673	23.62784	19.11451	15.54579
10840	2.61557	2.62582	2.22667	14.62138	13.84237	13.04517	12.84356	8.75602	5.51597	11.35011	11.07951	10.60457	4.64991	3.96251	3.40877	23.61310	19.11662	15.54944
11000	2.61455	2.62654	2.22458	14.62082	13.84135	13.04065	12.82315	8.75226	5.51236	11.34736	11.07637	10.60411	4.64665	3.95819	3.40557	23.60398	19.11618	15.54777
11160	2.61115	2.62323	2.22100	14.62032	13.84266	13.03970	12.82170	8.74976	5.50999	11.34698	11.07708	10.60315	4.64652	3.95996	3.40841	23.60335	19.12110	15.55142
11330	2.61404	2.62498	2.22283	14.62393	13.84472	13.04303	12.82895	8.75386	5.51155	11.34924	11.07803	10.60547	4.64615	3.95888	3.40686	23.60460	19.11490	15.55227
11490	2.61047	2.62494	2.22123	14.62346	13.84692	13.04617	12.83036	8.74829	5.51263	11.35274	11.08334	10.60809	4.64536	3.95951	3.40354	23.61819	19.12289	15.55498	36.92	6.1	0.00	-2.04	0.01725	0.01196	0.01514	0.01817	0.01879	0.01470	0.00545	0.01512	0.01999	0.01848	0.01282	0.01634	0.01702	0.01757	0.01373	0.00571	0.01605	0.02135
11660	2.61064	2.62455	2.22149	14.62629	13.84584	13.04386	12.84010	8.75235	5.50836	11.35132	11.08162	10.60492	4.64322	3.95746	3.40588	23.61778	19.12407	15.55583
11820	2.61323	2.62242	2.22208	14.62608	13.84886	13.04410	12.83045	8.75354	5.51066	11.35177	11.08272	10.60491	4.64136	3.95517	3.40245	23.60119	19.11625	15.55028
11990	2.60937	2.62565	2.22315	14.62273	13.85025	13.04738	12.84104	8.75451	5.51364	11.35362	11.08686	10.61149	4.64447	3.96070	3.40600	23.62483	19.12236	15.55474
12150	2.61063	2.62253	2.22160	14.62381	13.84701	13.04471	12.82729	8.75007	5.50957	11.35113	11.08458	10.60758	4.64338	3.96140	3.40664	23.62255	19.12148	15.55722
12320	2.61426	2.62295	2.22090	14.62884	13.85535	13.04836	12.83480	8.75354	5.51283	11.35593	11.08925	10.61259	4.64318	3.95608	3.40399	23.61425	19.12403	15.55646
12480	2.61098	2.62360	2.22313	14.63521	13.86000	13.05288	12.83105	8.75525	5.51444	11.36222	11.09363	10.61721	4.64592	3.96209	3.40667	23.63959	19.12742	15.56362
12650	2.61129	2.62191	2.21956	14.63261	13.85961	13.04902	12.83412	8.74825	5.50983	11.35684	11.08934	10.61244	4.64667	3.96075	3.40744	23.61612	19.13151	15.56310
12810	2.61242	2.62101	2.22107	14.63378	13.85890	13.05557	12.83045	8.74926	5.50748	11.36109	11.09199	10.61464	4.64152	3.95704	3.40257	23.63918	19.12860	15.55979
12970	2.61049	2.62005	2.22058	14.63334	13.86271	13.05540	12.83805	8.75057	5.51187	11.36068	11.09257	10.61543	4.64431	3.96009	3.40315	23.62483	19.12623	15.56018
13140	2.60982	2.61806	2.21955	14.63213	13.85397	13.05050	12.81006	8.74281	5.50335	11.35829	11.08916	10.61265	4.64171	3.95402	3.40196	23.61425	19.12286	15.55768	36.92	6.1	0.00	-2.04	0.01725	0.01196	0.01514	0.01817	0.01879	0.01470	0.00545	0.01512	0.01999	0.01848	0.01282	0.01634	0.01702	0.01757	0.01373	0.00571	0.01605	0.02135
