WetView ver 7.1	07-14-2018	13:21:07
AC9 Absorption and Attenuation Meter
00000266		; Serial number
2	; structure version number
Reserved
0.000000	0.000000		; Depth calibration
19200			; Baud rate
0.100000			; Path length (meters)
31			; number of temperature calibration bins
				12.59339	13.44920	14.48425	15.49668	16.50852	17.49564	18.50545	19.52458	20.50176	21.48889	22.47318	23.48707	24.50962	25.49370	26.49784	27.51372	28.50746	29.47237	30.47938	31.50214	32.50470	33.49235	34.50337	35.50914	36.50618	37.52058	38.51018	39.51308	40.49994	41.49866	42.47204	; temperature bins
a650	Blue	20.34952		-0.00383	-0.00415	-0.00430	-0.00391	-0.00363	-0.00317	-0.00269	-0.00237	-0.00179	-0.00130	-0.00099	-0.00071	-0.00015	0.00000	0.00004	-0.00001	0.00015	0.00036	0.00058	0.00101	0.00161	0.00132	0.00160	0.00169	0.00242	0.00273	0.00336	0.00365	0.00427	0.00566	0.00670		; offset and temperature correction info
a676	Green	20.51193		-0.00398	-0.00384	-0.00360	-0.00306	-0.00302	-0.00255	-0.00235	-0.00212	-0.00163	-0.00136	-0.00118	-0.00089	-0.00029	0.00000	0.00068	0.00082	0.00099	0.00137	0.00145	0.00212	0.00260	0.00252	0.00321	0.00354	0.00457	0.00535	0.00617	0.00648	0.00742	0.00887	0.01002		; offset and temperature correction info
a715	Brown	20.23230		-0.00421	-0.00394	-0.00391	-0.00291	-0.00264	-0.00192	-0.00204	-0.00179	-0.00188	-0.00239	-0.00180	-0.00187	-0.00099	0.00000	0.00084	0.00162	0.00188	0.00224	0.00321	0.00381	0.00466	0.00528	0.00588	0.00696	0.00859	0.01041	0.01148	0.01282	0.01333	0.01456	0.01617		; offset and temperature correction info
c510	Red	20.40042		-0.00261	-0.00247	-0.00258	-0.00225	-0.00203	-0.00197	-0.00199	-0.00203	-0.00154	-0.00103	-0.00069	-0.00019	-0.00007	0.00000	0.00011	-0.00021	-0.00042	-0.00056	-0.00040	0.00011	0.00036	0.00050	0.00077	0.00079	0.00050	0.00042	0.00043	0.00092	0.00147	0.00200	0.00232		; offset and temperature correction info
c532	Magenta	20.40760		-0.00248	-0.00265	-0.00278	-0.00279	-0.00296	-0.00292	-0.00238	-0.00206	-0.00129	-0.00096	-0.00092	-0.00052	-0.00009	0.00000	0.00007	-0.00049	-0.00136	-0.00107	-0.00079	-0.00065	-0.00074	-0.00105	-0.00152	-0.00192	-0.00236	-0.00269	-0.00252	-0.00233	-0.00172	-0.00128	-0.00067		; offset and temperature correction info
c555	Black	20.50654		-0.00053	-0.00063	-0.00106	-0.00094	-0.00068	-0.00055	-0.00053	-0.00039	-0.00028	-0.00025	-0.00011	-0.00035	-0.00007	0.00000	-0.00037	-0.00055	-0.00036	-0.00014	0.00019	0.00044	0.00032	0.00040	0.00050	0.00028	0.00014	0.00013	0.00030	0.00073	0.00117	0.00176	0.00241		; offset and temperature correction info
a412	LtBlue	17.15231		-0.01972	-0.01823	-0.01612	-0.01381	-0.01272	-0.01080	-0.00959	-0.00866	-0.00710	-0.00532	-0.00354	-0.00148	-0.00028	0.00000	0.00176	0.00297	0.00394	0.00440	0.00453	0.00487	0.00804	0.00856	0.01065	0.01248	0.01388	0.01439	0.01659	0.01881	0.02256	0.02450	0.02719		; offset and temperature correction info
a440	LtGreen	18.00171		-0.00729	-0.00642	-0.00581	-0.00502	-0.00426	-0.00349	-0.00244	-0.00218	-0.00179	-0.00101	-0.00046	-0.00006	0.00036	0.00000	0.00040	0.00045	0.00030	-0.00015	-0.00024	-0.00035	0.00012	-0.00013	-0.00033	-0.00089	-0.00142	-0.00189	-0.00231	-0.00205	-0.00140	-0.00140	-0.00146		; offset and temperature correction info
a488	Yellow	18.86491		-0.00113	-0.00102	-0.00106	-0.00064	-0.00027	-0.00020	-0.00030	-0.00037	-0.00047	-0.00059	-0.00052	-0.00012	0.00008	0.00000	0.00025	0.00012	-0.00013	-0.00043	-0.00065	-0.00076	-0.00025	0.00010	0.00090	0.00111	0.00113	0.00104	0.00073	0.00068	0.00120	0.00186	0.00258		; offset and temperature correction info
c650	Blue	20.46075		-0.00145	-0.00097	-0.00092	-0.00139	-0.00185	-0.00196	-0.00237	-0.00266	-0.00238	-0.00163	-0.00083	-0.00041	-0.00010	0.00000	0.00005	-0.00001	0.00015	0.00034	0.00029	0.00065	0.00101	0.00164	0.00126	0.00156	0.00175	0.00270	0.00287	0.00371	0.00407	0.00473	0.00534		; offset and temperature correction info
c676	Green	20.10118		-0.00170	-0.00144	-0.00149	-0.00177	-0.00188	-0.00194	-0.00198	-0.00196	-0.00177	-0.00156	-0.00140	-0.00091	-0.00033	0.00000	0.00050	0.00092	0.00110	0.00141	0.00167	0.00199	0.00216	0.00265	0.00269	0.00289	0.00315	0.00374	0.00367	0.00408	0.00486	0.00561	0.00646		; offset and temperature correction info
c715	Brown	19.91219		-0.01201	-0.01097	-0.00859	-0.00680	-0.00651	-0.00592	-0.00535	-0.00440	-0.00387	-0.00303	-0.00222	-0.00153	-0.00028	0.00000	0.00093	0.00149	0.00247	0.00322	0.00330	0.00427	0.00373	0.00464	0.00536	0.00551	0.00643	0.00733	0.00779	0.00884	0.00899	0.01021	0.01120		; offset and temperature correction info
a510	Red	19.21192		0.00201	0.00193	0.00158	0.00098	0.00089	0.00049	0.00011	-0.00016	-0.00016	-0.00005	0.00028	0.00025	0.00006	0.00000	0.00035	-0.00022	-0.00023	-0.00080	-0.00144	-0.00154	-0.00153	-0.00204	-0.00220	-0.00219	-0.00190	-0.00128	-0.00069	-0.00018	0.00068	0.00152	0.00241		; offset and temperature correction info
a532	Magenta	19.41084		-0.00097	-0.00072	-0.00060	-0.00081	-0.00062	-0.00071	-0.00040	0.00020	0.00028	0.00043	0.00000	-0.00035	0.00007	0.00000	-0.00011	-0.00059	-0.00080	-0.00098	-0.00137	-0.00162	-0.00163	-0.00130	-0.00073	-0.00018	0.00090	0.00185	0.00175	0.00247	0.00291	0.00327	0.00349		; offset and temperature correction info
a555	Black	19.69776		0.00171	0.00183	0.00183	0.00186	0.00191	0.00170	0.00115	0.00131	0.00097	0.00073	0.00060	0.00013	0.00015	0.00000	0.00014	-0.00029	-0.00066	-0.00082	-0.00116	-0.00139	-0.00134	-0.00167	-0.00119	-0.00093	-0.00048	0.00053	0.00111	0.00095	0.00178	0.00206	0.00273		; offset and temperature correction info
c412	LtBlue	19.91180		-0.02051	-0.01853	-0.01589	-0.01311	-0.01059	-0.00877	-0.00705	-0.00581	-0.00413	-0.00231	-0.00098	-0.00066	-0.00011	0.00000	-0.00013	-0.00085	-0.00170	-0.00170	-0.00302	-0.00330	-0.00429	-0.00551	-0.00626	-0.00775	-0.00978	-0.01181	-0.01113	-0.01108	-0.01116	-0.01192	-0.01291		; offset and temperature correction info
c440	LtGreen	20.06241		-0.01064	-0.00992	-0.00892	-0.00766	-0.00639	-0.00531	-0.00478	-0.00384	-0.00287	-0.00187	-0.00102	-0.00063	-0.00023	0.00000	-0.00007	-0.00053	-0.00090	-0.00119	-0.00169	-0.00197	-0.00226	-0.00257	-0.00260	-0.00289	-0.00394	-0.00470	-0.00481	-0.00493	-0.00520	-0.00580	-0.00620		; offset and temperature correction info
c488	Yellow	20.35984		-0.01125	-0.01082	-0.00966	-0.00833	-0.00726	-0.00661	-0.00579	-0.00500	-0.00389	-0.00278	-0.00167	-0.00113	-0.00041	0.00000	0.00055	0.00121	0.00187	0.00226	0.00222	0.00251	0.00281	0.00359	0.00414	0.00427	0.00401	0.00404	0.00486	0.00563	0.00638	0.00684	0.00718		; offset and temperature correction info
0.003500	0.004000	0.015000	0.020000	0.015000	0.020000	2500.000000	2000.000000	1000.000000	; maxANoise	maxCNoise	maxADifference	maxCDifference	minACounts	minCCounts	minRCounts	maxTempSdev	maxDepthSdev
0			; auxilliary capabilities
1			; acquisition binsize
0	7.66465	7.65613	6.20352	28.26035	25.15938	21.44097	44.08117	31.37989	19.03481	16.41833	18.53899	18.93813	15.76490	13.34295	11.65436	57.45690	39.72605	32.63537	28.98	6.0	0.00	7.57	0.01271	0.01291	0.01641	0.00784	0.00583	0.00640	0.00469	0.01269	0.01686	0.00679	0.00693	0.00883	0.01492	0.01096	0.01198	0.00220	0.00624	0.00873
160	7.38952	7.11135	6.29717	34.73247	26.22304	22.58602	45.32266	31.53649	19.42687	17.70302	19.63048	25.25510	15.49158	13.32716	11.85167	53.86818	42.87788	29.06061
330	7.96512	7.25934	6.17996	26.09258	27.94185	24.22679	42.98873	30.32113	18.79019	19.52749	18.12219	17.60944	15.98644	13.28632	11.48091	56.26879	38.20759	26.77696
490	7.81670	6.52773	5.54777	23.76569	21.59528	19.05744	42.33155	29.61301	18.31991	15.89363	15.54039	19.35480	16.20125	14.93766	12.35225	52.92023	39.96440	28.27501
650	8.09933	6.90979	7.01031	26.85239	24.56364	22.66715	43.47747	30.47741	18.32621	19.86806	18.53730	15.35366	15.88258	13.53368	12.14767	52.35559	40.78436	29.86154
820	8.39321	7.80870	6.42011	26.58654	25.40535	24.58899	42.93494	29.80400	19.10489	21.22770	18.59784	18.56283	15.94106	13.06661	11.66523	58.15179	48.68321	35.49798
980	7.85155	7.52394	6.52178	35.04533	28.65569	27.22157	43.97644	30.65214	19.15249	22.49146	22.04593	21.72929	15.80775	13.27445	11.63907	59.12849	42.53303	30.20585
1140	6.95284	6.25330	5.02249	24.77527	22.96662	21.66809	41.72382	30.14002	17.81194	16.00634	14.28886	13.76266	14.45676	12.37450	10.80978	52.17652	40.46472	25.44401
1310	7.33261	6.55893	4.55962	23.01188	20.37636	19.20714	41.82833	28.76409	16.92875	15.04071	12.72524	14.66890	14.11128	12.18700	10.86331	49.71432	36.16490	24.64406
1470	7.46142	5.91494	5.20768	21.38053	20.25423	24.11292	43.90230	30.84592	18.30312	14.68351	16.28931	13.65299	14.60666	12.60700	10.68563	52.06115	39.79662	28.30579
1630	5.92292	5.32862	4.11392	26.25256	25.55252	24.15579	41.57607	29.51573	17.71787	13.97779	13.38444	14.29417	14.06401	11.87906	10.04323	51.93186	37.37321	23.76827	28.98	6.0	0.00	7.52	0.01271	0.01291	0.01641	0.00784	0.00583	0.00640	0.00469	0.01269	0.01686	0.00679	0.00693	0.00883	0.01492	0.01096	0.01198	0.00220	0.00624	0.00873
1800	5.93075	5.14813	4.15083	24.96902	21.02858	18.32022	41.41639	29.07559	17.10138	14.49857	14.18762	13.73101	15.65064	12.29928	10.13563	53.58727	41.30397	24.78020
1960	5.74316	5.39414	4.49676	20.56624	19.22767	16.83271	41.25781	28.44538	16.75403	11.87595	10.77702	9.95617	14.04994	12.44508	10.29741	48.52156	35.09945	23.40089
2120	6.12537	5.67273	4.71521	20.56601	18.24485	17.00735	41.65540	28.84069	17.06499	17.29158	15.86440	11.61318	14.12440	11.85403	10.17071	49.43872	39.10585	29.00422
2290	6.21282	5.73921	4.39441	21.67863	19.30804	18.16322	41.49591	28.61498	17.11983	13.90927	14.57073	14.65665	14.69554	14.31594	10.96337	53.04412	43.00830	37.75418
2450	6.47504	6.14239	5.39727	25.88101	23.29805	23.48154	42.49980	29.70937	18.03191	17.93653	19.11705	16.58645	14.59828	13.95016	10.99979	54.16163	38.39682	25.56194
2610	7.74888	6.53543	5.57163	21.90328	20.35365	17.75755	43.10856	31.76325	18.19012	20.97083	22.71590	19.06515	16.96945	16.46371	14.15654	63.56470	43.52981	26.38579
2780	7.27649	6.87554	5.49812	27.43940	29.27464	25.43915	41.78903	29.30698	21.29298	26.43031	25.78963	18.52634	15.68332	16.58917	19.41139	60.87078	50.71826	42.16357
2940	27.80197	20.37329	16.84381	30.43033	33.61524	54.93551	60.86542	41.36860	27.76076	92.94906	89.72477	98.89043	32.05289	29.26402	29.39666	92.48976	135.64521	103.19641
3100	25.68166	28.59243	29.18869	108.31949	106.98308	95.74589	47.66600	37.36886	29.77645	108.56142	45.44153	91.17253	30.65433	31.77094	24.98506	91.39777	135.64521	113.65609
3270	17.80725	23.64278	18.83787	90.56952	92.54649	90.09853	46.03089	43.45299	33.62816	39.27462	44.26842	58.97477	29.63634	23.09782	20.97192	88.17760	101.97246	93.66133	29.03	6.0	0.00	7.44	0.01271	0.01291	0.01641	0.00784	0.00583	0.00640	0.00469	0.01269	0.01686	0.00679	0.00692	0.00882	0.01492	0.01096	0.01198	0.00220	0.00624	0.00873
3430	14.19983	16.06894	12.28049	79.16840	77.50571	105.90303	49.98332	34.85302	26.18069	46.79522	56.65612	61.88187	25.53324	19.14547	16.58835	125.06639	106.20103	103.46962
3590	14.51147	12.47571	12.09438	64.54890	70.51270	71.32036	48.96571	36.16134	25.31842	86.14040	43.56865	64.74971	22.80175	23.66197	16.65078	87.45439	99.26956	108.39439
3760	12.67910	11.40585	11.19733	67.52674	52.70305	46.58311	43.33201	29.04304	21.13910	53.42097	56.04243	71.91734	17.54060	16.50550	15.96191	82.58144	96.93341	99.79238
3920	13.85809	15.98033	15.87976	94.45610	90.65407	70.85175	55.90944	42.91846	31.50542	87.98864	93.68581	115.93564	33.98129	31.40591	33.75494	91.05442	113.67317	94.76134
4090	28.49262	30.42608	26.45598	104.60341	59.79602	90.70478	55.25104	47.05461	31.48230	93.45408	94.24151	63.98387	34.52762	25.45168	21.88174	78.52679	99.26956	66.04016
4250	27.65694	22.32992	21.26234	80.28544	88.49183	89.16327	52.41160	35.16467	31.15870	84.11099	94.38540	104.94951	25.86622	27.22526	23.13659	86.14819	87.12512	80.16978
4410	19.96121	16.10471	18.36560	100.20974	102.35478	93.58160	43.01126	43.76374	26.89163	100.25652	96.83662	97.53014	25.97608	21.62657	22.30004	86.35438	93.16047	84.29223
4580	12.37837	15.76917	12.97632	96.08129	94.70872	90.00097	49.64013	40.06665	21.96687	93.07187	83.94531	70.33391	15.44886	13.34674	15.59909	81.24612	93.74887	94.30672
4740	7.45437	10.55233	12.08058	60.54463	60.59952	64.57043	44.43863	33.70663	21.72371	24.11264	21.08799	31.67806	20.92364	18.03666	17.03070	61.11377	42.27657	32.01832
4900	11.41109	8.51767	11.13455	34.69619	48.31999	49.30353	43.38012	33.64436	18.41594	31.49178	21.09529	38.28039	14.39692	11.67389	10.00977	62.22505	55.09036	38.49627	28.98	6.2	0.00	7.47	0.01271	0.01291	0.01641	0.00784	0.00583	0.00640	0.00469	0.01269	0.01685	0.00679	0.00692	0.00882	0.01492	0.01096	0.01198	0.00220	0.00624	0.00873
5070	8.41223	9.18609	9.25652	48.81698	31.70878	45.65387	43.70428	33.15024	23.85650	59.68020	29.62656	52.72723	22.48637	19.67452	21.16287	81.62834	64.65310	49.97641
5230	15.19479	14.01187	18.52066	71.07332	93.72464	54.18767	46.43731	40.23286	28.77761	54.01145	55.97369	81.36995	23.34528	20.42965	17.46023	88.69053	109.25454	74.62683
5400	18.69646	15.11992	15.14139	58.84480	70.69879	61.10834	50.05894	37.43282	24.96580	89.18240	75.94687	59.63534	24.56227	21.71342	26.19716	107.14880	100.68004	95.35932
5560	17.84179	16.77025	14.03016	101.89966	96.19324	98.06214	60.51915	44.55198	31.15638	98.60284	113.69744	138.95896	26.28590	20.16181	29.27443	98.67582	100.98776	139.30381
5720	16.10302	21.68155	31.05860	98.57260	98.17775	108.62266	39.39346	40.06463	37.76094	91.67136	82.92432	64.46980	25.90555	20.66513	21.41535	125.06639	80.71450	86.42114
5890	17.01363	18.63692	25.52986	37.82261	39.38537	31.00788	50.17236	35.27914	31.79850	40.27000	33.21531	31.07196	16.50534	18.18563	16.74816	82.16180	83.94028	103.75033
6050	13.66980	18.84802	17.92472	97.84501	101.30150	136.34855	59.68883	33.37565	23.11198	83.41817	77.91796	86.28038	24.48101	17.07884	15.37603	84.63588	105.19989	121.38622
6220	14.32947	12.48108	7.97923	97.50015	89.46380	36.66892	40.87827	27.98674	16.73864	39.13384	45.58830	71.84156	13.47562	11.22231	9.58828	94.15597	105.19989	139.30381
6380	5.33976	4.78327	3.65251	112.62603	93.11839	136.34855	40.81298	34.02210	25.45733	101.05406	95.94792	102.07017	20.69078	21.45218	19.97998	87.68969	119.55074	90.94099
6540	19.23696	14.18990	17.61235	98.95689	82.08398	92.52726	54.32912	40.04295	33.85845	87.61504	89.62506	103.12040	27.60195	25.77392	27.07216	104.27360	111.66588	103.19436	28.98	6.2	0.00	7.47	0.01271	0.01291	0.01641	0.00784	0.00583	0.00640	0.00469	0.01269	0.01685	0.00679	0.00692	0.00882	0.01492	0.01096	0.01198	0.00220	0.00624	0.00873
6710	21.49287	20.46493	17.54031	115.24929	94.88357	95.57215	53.55815	42.83314	32.91271	104.30662	136.72036	104.94361	29.30970	27.66022	22.66079	86.14981	101.30496	110.39982
6870	27.50155	26.53444	21.20053	118.81604	85.96934	91.46116	51.62002	41.90293	35.80583	48.53984	33.60487	32.51635	36.23624	32.63821	35.68814	73.71003	82.12625	48.02526
7030	27.45525	20.41926	17.23623	42.80487	45.01032	55.00285	43.50317	36.80864	26.09005	41.56987	20.36504	32.50896	17.33380	14.79866	11.06877	125.06802	100.67975	79.26467
7200	7.69621	10.35326	8.18410	98.95689	97.93739	97.22730	45.89964	37.32623	32.46299	95.77884	102.38049	90.67245	31.82354	24.98915	32.11954	99.41852	97.35841	101.23692
7360	23.01688	28.90184	20.58671	101.89928	93.72525	94.91618	56.09488	48.37877	33.44209	109.16169	97.01745	95.91493	29.57049	26.50632	27.30216	94.15759	101.97187	108.39312
7520	22.39366	21.34918	18.46457	89.99201	79.32986	99.21181	53.35176	45.31145	29.55398	53.81052	58.97181	81.24117	30.10010	27.81805	23.01543	62.04183	42.32456	34.76551
7690	18.60184	18.24509	17.81443	27.77959	30.21831	20.26963	54.90595	46.42638	29.45345	25.11641	34.24463	36.16825	25.98423	24.97273	26.05438	80.64151	63.49978	45.59682
7850	17.20855	17.08360	20.14968	60.56869	98.93822	93.72073	52.78387	43.89945	32.91228	96.63406	105.80994	125.09264	28.49369	25.95590	24.16317	105.60892	108.56433	116.27769
8010	19.33041	19.16296	18.79319	98.38530	80.38347	72.32835	54.20936	42.71842	29.14284	68.58964	62.61085	69.40920	29.05458	29.15092	29.12593	51.80336	43.91948	42.95334
8180	21.61858	21.82226	21.60245	42.73572	48.39123	53.09372	48.37042	44.07577	30.52491	52.57325	75.89912	57.96214	19.32146	23.04586	20.99484	86.15198	80.19344	86.94103	28.98	6.2	0.00	7.49	0.01271	0.01291	0.01641	0.00784	0.00583	0.00640	0.00469	0.01268	0.01685	0.00679	0.00692	0.00882	0.01492	0.01096	0.01198	0.00220	0.00624	0.00873
8340	14.50586	21.59074	18.20672	78.33682	80.18184	68.88508	48.52754	34.90267	25.63844	43.54192	47.26147	38.57575	23.76378	16.68945	18.09233	83.17364	66.37944	56.85686
8500	10.50448	9.73831	7.43910	35.76214	43.88267	41.34451	46.89180	33.53671	19.67799	32.13138	28.11537	34.68025	16.58571	16.61589	14.75210	60.58129	45.81709	42.33160
8660	11.85958	10.44139	9.61709	48.35832	51.81892	45.56284	44.65240	30.30309	21.61079	22.23252	32.26261	20.00387	18.70108	16.14306	13.28285	73.95031	54.61329	39.94784
8830	8.76154	8.86573	7.58571	30.51901	23.35647	26.36193	44.79473	31.91913	20.52978	12.10485	10.42164	12.97251	17.24668	13.71203	12.81974	48.85824	37.34572	23.70526
8990	9.65000	9.06411	8.74903	26.87537	27.36107	25.58285	44.07429	33.77866	19.83520	16.51436	18.93348	20.57034	18.21772	16.80620	13.79520	65.30668	45.80454	36.82936
9150	9.56615	11.72788	6.69514	28.86604	19.91929	16.39124	43.01975	30.45457	17.71302	15.91375	26.76368	12.32970	16.92946	15.17048	13.10234	50.48833	36.82819	30.97535
9320	11.01822	6.20191	5.16287	30.05568	32.78173	30.22781	43.98080	29.82328	22.76693	24.24752	23.24658	14.96891	19.64288	17.31776	15.60235	53.72925	39.55673	28.78846
9480	10.01268	8.49099	7.47404	19.47114	17.69510	16.93145	44.96167	32.39399	19.62450	12.47302	11.02030	10.15148	15.11847	11.27996	9.69168	49.75466	39.99798	27.91513
9640	6.82309	5.56844	5.05167	37.80489	23.61065	22.99078	41.05107	28.19825	16.30598	13.51066	13.78904	19.75779	15.76911	14.21849	10.94420	56.70759	44.01797	30.68436
9810	7.37137	7.09946	5.30939	19.89378	19.38503	23.24690	41.54390	29.40359	18.35029	13.84255	13.48794	14.02311	15.72193	12.39699	10.39433	57.67763	39.98809	37.56810	29.03	6.3	0.00	7.48	0.01271	0.01291	0.01641	0.00784	0.00583	0.00640	0.00469	0.01269	0.01685	0.00679	0.00692	0.00882	0.01492	0.01096	0.01198	0.00220	0.00624	0.00873
9970	5.95695	6.43757	5.42452	29.13072	23.72485	26.53422	41.47703	28.84499	17.09641	17.00125	26.19071	23.44702	15.32927	13.90437	13.13277	55.47701	45.30791	33.23442
10130	7.59562	5.88131	5.86938	32.02879	24.18829	19.49335	44.57555	29.83182	18.43189	14.66532	17.71269	14.97915	15.55465	12.09854	10.50071	54.31291	40.01476	25.45857
10300	6.07023	5.76068	4.91638	20.71598	27.09764	18.77606	42.14350	28.32479	18.22567	16.59624	14.62679	17.99080	16.52112	13.35058	10.83583	53.17932	41.24650	33.69343
10460	7.76352	6.07112	6.41561	26.44480	23.92223	23.13848	43.30836	29.50014	18.51873	20.75606	13.51385	13.06067	15.62984	12.71163	10.94290	50.93130	36.90661	27.30905
10630	6.62603	5.99733	4.98145	22.72740	21.77888	21.05968	42.01883	28.99055	17.04285	18.12867	18.44832	15.33652	16.00074	11.49586	12.47048	57.20383	44.05256	27.89507
10790	6.85853	7.56610	5.32716	23.70882	21.60325	19.71001	43.28403	30.69174	18.84164	17.80686	16.47551	14.66129	15.34964	12.83972	10.84359	50.91323	40.08812	33.45560
10950	7.34605	5.85777	5.81842	23.08254	23.75395	23.41127	44.26442	31.30871	20.95806	17.44268	14.72508	13.19857	18.16450	14.84931	13.19668	54.53514	39.50777	25.80236
11120	8.72320	8.19476	6.47826	23.15294	21.21299	17.97400	42.49175	29.14355	18.01702	14.55867	15.62428	14.44460	14.92505	11.97544	10.20914	50.15455	37.46529	28.23594
11280	8.05821	6.41969	5.11732	30.32640	27.94294	25.02063	41.21111	29.03039	17.43275	15.74020	14.60967	13.74377	14.69202	13.47994	11.47553	53.51704	38.95293	27.03855
11450	7.30012	7.88441	5.31680	22.68600	20.15398	18.64235	42.47700	31.09877	19.90345	18.56055	17.14941	14.83618	18.44297	15.19072	13.93213	64.61851	38.58690	24.87001	29.03	6.2	0.00	7.54	0.01271	0.01291	0.01641	0.00784	0.00583	0.00640	0.00469	0.01269	0.01685	0.00679	0.00692	0.00882	0.01492	0.01096	0.01198	0.00220	0.00624	0.00873
