WetView ver 7.1	07-14-2018	13:48:56
AC9 Absorption and Attenuation Meter
00000266		; Serial number
2	; structure version number
Reserved
0.000000	0.000000		; Depth calibration
19200			; Baud rate
0.100000			; Path length (meters)
31			; number of temperature calibration bins
				12.59339	13.44920	14.48425	15.49668	16.50852	17.49564	18.50545	19.52458	20.50176	21.48889	22.47318	23.48707	24.50962	25.49370	26.49784	27.51372	28.50746	29.47237	30.47938	31.50214	32.50470	33.49235	34.50337	35.50914	36.50618	37.52058	38.51018	39.51308	40.49994	41.49866	42.47204	; temperature bins
a650	Blue	20.34952		-0.00383	-0.00415	-0.00430	-0.00391	-0.00363	-0.00317	-0.00269	-0.00237	-0.00179	-0.00130	-0.00099	-0.00071	-0.00015	0.00000	0.00004	-0.00001	0.00015	0.00036	0.00058	0.00101	0.00161	0.00132	0.00160	0.00169	0.00242	0.00273	0.00336	0.00365	0.00427	0.00566	0.00670		; offset and temperature correction info
a676	Green	20.51193		-0.00398	-0.00384	-0.00360	-0.00306	-0.00302	-0.00255	-0.00235	-0.00212	-0.00163	-0.00136	-0.00118	-0.00089	-0.00029	0.00000	0.00068	0.00082	0.00099	0.00137	0.00145	0.00212	0.00260	0.00252	0.00321	0.00354	0.00457	0.00535	0.00617	0.00648	0.00742	0.00887	0.01002		; offset and temperature correction info
a715	Brown	20.23230		-0.00421	-0.00394	-0.00391	-0.00291	-0.00264	-0.00192	-0.00204	-0.00179	-0.00188	-0.00239	-0.00180	-0.00187	-0.00099	0.00000	0.00084	0.00162	0.00188	0.00224	0.00321	0.00381	0.00466	0.00528	0.00588	0.00696	0.00859	0.01041	0.01148	0.01282	0.01333	0.01456	0.01617		; offset and temperature correction info
c510	Red	20.40042		-0.00261	-0.00247	-0.00258	-0.00225	-0.00203	-0.00197	-0.00199	-0.00203	-0.00154	-0.00103	-0.00069	-0.00019	-0.00007	0.00000	0.00011	-0.00021	-0.00042	-0.00056	-0.00040	0.00011	0.00036	0.00050	0.00077	0.00079	0.00050	0.00042	0.00043	0.00092	0.00147	0.00200	0.00232		; offset and temperature correction info
c532	Magenta	20.40760		-0.00248	-0.00265	-0.00278	-0.00279	-0.00296	-0.00292	-0.00238	-0.00206	-0.00129	-0.00096	-0.00092	-0.00052	-0.00009	0.00000	0.00007	-0.00049	-0.00136	-0.00107	-0.00079	-0.00065	-0.00074	-0.00105	-0.00152	-0.00192	-0.00236	-0.00269	-0.00252	-0.00233	-0.00172	-0.00128	-0.00067		; offset and temperature correction info
c555	Black	20.50654		-0.00053	-0.00063	-0.00106	-0.00094	-0.00068	-0.00055	-0.00053	-0.00039	-0.00028	-0.00025	-0.00011	-0.00035	-0.00007	0.00000	-0.00037	-0.00055	-0.00036	-0.00014	0.00019	0.00044	0.00032	0.00040	0.00050	0.00028	0.00014	0.00013	0.00030	0.00073	0.00117	0.00176	0.00241		; offset and temperature correction info
a412	LtBlue	17.15231		-0.01972	-0.01823	-0.01612	-0.01381	-0.01272	-0.01080	-0.00959	-0.00866	-0.00710	-0.00532	-0.00354	-0.00148	-0.00028	0.00000	0.00176	0.00297	0.00394	0.00440	0.00453	0.00487	0.00804	0.00856	0.01065	0.01248	0.01388	0.01439	0.01659	0.01881	0.02256	0.02450	0.02719		; offset and temperature correction info
a440	LtGreen	18.00171		-0.00729	-0.00642	-0.00581	-0.00502	-0.00426	-0.00349	-0.00244	-0.00218	-0.00179	-0.00101	-0.00046	-0.00006	0.00036	0.00000	0.00040	0.00045	0.00030	-0.00015	-0.00024	-0.00035	0.00012	-0.00013	-0.00033	-0.00089	-0.00142	-0.00189	-0.00231	-0.00205	-0.00140	-0.00140	-0.00146		; offset and temperature correction info
a488	Yellow	18.86491		-0.00113	-0.00102	-0.00106	-0.00064	-0.00027	-0.00020	-0.00030	-0.00037	-0.00047	-0.00059	-0.00052	-0.00012	0.00008	0.00000	0.00025	0.00012	-0.00013	-0.00043	-0.00065	-0.00076	-0.00025	0.00010	0.00090	0.00111	0.00113	0.00104	0.00073	0.00068	0.00120	0.00186	0.00258		; offset and temperature correction info
c650	Blue	20.46075		-0.00145	-0.00097	-0.00092	-0.00139	-0.00185	-0.00196	-0.00237	-0.00266	-0.00238	-0.00163	-0.00083	-0.00041	-0.00010	0.00000	0.00005	-0.00001	0.00015	0.00034	0.00029	0.00065	0.00101	0.00164	0.00126	0.00156	0.00175	0.00270	0.00287	0.00371	0.00407	0.00473	0.00534		; offset and temperature correction info
c676	Green	20.10118		-0.00170	-0.00144	-0.00149	-0.00177	-0.00188	-0.00194	-0.00198	-0.00196	-0.00177	-0.00156	-0.00140	-0.00091	-0.00033	0.00000	0.00050	0.00092	0.00110	0.00141	0.00167	0.00199	0.00216	0.00265	0.00269	0.00289	0.00315	0.00374	0.00367	0.00408	0.00486	0.00561	0.00646		; offset and temperature correction info
c715	Brown	19.91219		-0.01201	-0.01097	-0.00859	-0.00680	-0.00651	-0.00592	-0.00535	-0.00440	-0.00387	-0.00303	-0.00222	-0.00153	-0.00028	0.00000	0.00093	0.00149	0.00247	0.00322	0.00330	0.00427	0.00373	0.00464	0.00536	0.00551	0.00643	0.00733	0.00779	0.00884	0.00899	0.01021	0.01120		; offset and temperature correction info
a510	Red	19.21192		0.00201	0.00193	0.00158	0.00098	0.00089	0.00049	0.00011	-0.00016	-0.00016	-0.00005	0.00028	0.00025	0.00006	0.00000	0.00035	-0.00022	-0.00023	-0.00080	-0.00144	-0.00154	-0.00153	-0.00204	-0.00220	-0.00219	-0.00190	-0.00128	-0.00069	-0.00018	0.00068	0.00152	0.00241		; offset and temperature correction info
a532	Magenta	19.41084		-0.00097	-0.00072	-0.00060	-0.00081	-0.00062	-0.00071	-0.00040	0.00020	0.00028	0.00043	0.00000	-0.00035	0.00007	0.00000	-0.00011	-0.00059	-0.00080	-0.00098	-0.00137	-0.00162	-0.00163	-0.00130	-0.00073	-0.00018	0.00090	0.00185	0.00175	0.00247	0.00291	0.00327	0.00349		; offset and temperature correction info
a555	Black	19.69776		0.00171	0.00183	0.00183	0.00186	0.00191	0.00170	0.00115	0.00131	0.00097	0.00073	0.00060	0.00013	0.00015	0.00000	0.00014	-0.00029	-0.00066	-0.00082	-0.00116	-0.00139	-0.00134	-0.00167	-0.00119	-0.00093	-0.00048	0.00053	0.00111	0.00095	0.00178	0.00206	0.00273		; offset and temperature correction info
c412	LtBlue	19.91180		-0.02051	-0.01853	-0.01589	-0.01311	-0.01059	-0.00877	-0.00705	-0.00581	-0.00413	-0.00231	-0.00098	-0.00066	-0.00011	0.00000	-0.00013	-0.00085	-0.00170	-0.00170	-0.00302	-0.00330	-0.00429	-0.00551	-0.00626	-0.00775	-0.00978	-0.01181	-0.01113	-0.01108	-0.01116	-0.01192	-0.01291		; offset and temperature correction info
c440	LtGreen	20.06241		-0.01064	-0.00992	-0.00892	-0.00766	-0.00639	-0.00531	-0.00478	-0.00384	-0.00287	-0.00187	-0.00102	-0.00063	-0.00023	0.00000	-0.00007	-0.00053	-0.00090	-0.00119	-0.00169	-0.00197	-0.00226	-0.00257	-0.00260	-0.00289	-0.00394	-0.00470	-0.00481	-0.00493	-0.00520	-0.00580	-0.00620		; offset and temperature correction info
c488	Yellow	20.35984		-0.01125	-0.01082	-0.00966	-0.00833	-0.00726	-0.00661	-0.00579	-0.00500	-0.00389	-0.00278	-0.00167	-0.00113	-0.00041	0.00000	0.00055	0.00121	0.00187	0.00226	0.00222	0.00251	0.00281	0.00359	0.00414	0.00427	0.00401	0.00404	0.00486	0.00563	0.00638	0.00684	0.00718		; offset and temperature correction info
0.003500	0.004000	0.015000	0.020000	0.015000	0.020000	2500.000000	2000.000000	1000.000000	; maxANoise	maxCNoise	maxADifference	maxCDifference	minACounts	minCCounts	minRCounts	maxTempSdev	maxDepthSdev
0			; auxilliary capabilities
1			; acquisition binsize
0	3.13731	2.52521	1.78996	10.39462	8.47675	7.36513	36.27305	24.13359	13.33015	3.69128	3.04247	2.14768	10.64174	8.54349	7.20327	35.80526	23.68178	12.98954	31.64	6.1	0.00	7.58	0.01265	0.01288	0.01624	0.00779	0.00579	0.00637	0.00466	0.01262	0.01676	0.00678	0.00698	0.00879	0.01484	0.01090	0.01192	0.00218	0.00618	0.00866
170	3.11831	2.49402	1.96745	10.44047	8.69694	6.87111	36.43543	23.98346	13.04617	3.17014	2.62644	1.88290	10.45183	8.43319	6.85836	35.84284	23.91986	13.62685
330	3.08159	2.50924	1.80369	10.79265	9.13729	7.41403	36.11924	24.01124	13.03443	3.14663	2.49791	1.83929	10.41618	8.35323	6.82535	35.79589	23.70908	13.02638
490	3.07295	2.45813	2.02675	10.37958	8.36776	6.85843	36.31992	24.01072	13.09608	3.20515	2.55075	2.07606	10.43961	8.65022	7.19827	35.89272	23.68385	12.96311
660	3.10362	2.77224	1.89503	10.41002	8.45910	6.91789	36.60944	24.05344	13.51297	3.40193	2.96473	2.60998	10.46140	9.75012	7.85983	37.73324	26.12875	15.49461
820	3.25273	2.74215	2.00423	14.33224	12.10121	9.90704	36.28605	24.00754	13.03296	4.25357	2.76210	2.36646	10.44147	8.38848	6.91378	37.13579	23.72574	13.04009
980	3.07806	2.44825	1.72945	10.59187	8.89899	6.93357	36.35915	24.16144	13.12511	3.39555	2.54098	2.31477	10.46453	8.54414	6.92991	35.99458	23.73938	13.02764
1150	3.18342	2.48354	1.75315	10.51504	8.56204	6.87339	36.26094	24.04031	13.21239	3.16841	2.60699	2.17064	10.74627	8.68133	7.46269	35.71989	23.99183	13.22078
1310	3.13000	2.56077	1.81847	10.87035	8.60237	7.03555	36.55318	24.23048	13.13479	3.42651	2.95066	2.07649	10.40181	8.42127	6.93837	35.77717	24.01914	13.05258
1470	3.74923	2.65758	1.85331	10.38874	8.44827	6.96663	37.13341	24.70569	14.59630	3.20864	2.51610	1.89861	10.63052	9.04312	8.32936	35.76649	23.72366	13.14458
1640	4.04276	2.99515	2.40967	10.49451	8.45642	6.97803	36.57245	24.37483	13.36171	3.17204	2.51105	1.84261	11.14263	8.77693	7.15760	35.74722	23.72371	12.97118	31.58	6.1	0.00	7.59	0.01265	0.01288	0.01624	0.00779	0.00579	0.00637	0.00466	0.01262	0.01676	0.00678	0.00698	0.00879	0.01484	0.01090	0.01192	0.00218	0.00618	0.00866
1800	3.26180	2.75210	2.10535	10.41081	8.50701	6.93176	36.92665	24.50274	13.06194	3.24729	2.62445	1.92287	10.59169	8.58467	7.13589	36.24139	24.33352	13.12768
1960	3.54207	2.96316	2.12204	10.54210	8.89615	7.16156	36.51995	24.06745	13.07768	3.37864	2.98719	2.27010	10.54865	8.53099	7.04791	35.85435	23.71634	12.98158
2130	3.09005	2.46947	1.73305	10.36627	8.37373	6.86755	35.89878	23.94154	13.08404	3.20694	2.51210	2.06778	10.49165	8.53038	7.20946	35.87996	23.98902	13.41613
2290	3.34537	2.87733	1.88331	10.72375	9.10264	8.66979	36.34398	24.12095	13.22626	3.61655	3.33766	2.30585	10.64308	8.61561	6.89247	35.90293	23.79385	14.09576
2450	3.10082	2.52040	1.77989	10.93287	8.81740	6.98372	36.56354	24.27468	13.27121	3.33012	2.52601	1.87865	10.45002	8.35319	6.93413	35.92867	24.11958	13.06136
2620	3.19608	2.49763	1.82031	10.35413	8.38528	6.87097	36.29786	23.97186	13.02205	3.16570	2.51818	1.88067	10.46970	8.38077	6.89026	35.87186	23.73247	13.00760
2780	3.31000	2.52888	1.88104	10.37393	8.48666	6.87071	36.48627	24.36162	13.23993	3.29440	2.63914	1.92398	10.84219	8.71369	7.23882	35.82477	23.97176	13.05579
2940	3.33778	2.62587	1.88697	10.71660	8.40384	6.96023	36.47301	24.18708	13.44913	3.39543	2.76627	2.03364	10.65203	8.77206	7.30088	35.91376	23.68529	12.97088
3100	3.71461	3.02752	2.04881	10.37756	8.47324	6.91224	36.56978	24.36403	13.22554	3.17833	2.52806	1.94416	10.51390	8.49037	6.94141	35.81672	23.76828	13.07093
3270	3.31446	2.63301	1.90799	10.90136	8.71974	7.09145	36.82337	24.10125	13.45189	3.25400	2.72049	2.29289	10.63534	8.52606	7.08530	35.75289	23.69822	13.05004	31.58	6.1	0.00	7.76	0.01264	0.01288	0.01624	0.00779	0.00579	0.00637	0.00466	0.01262	0.01676	0.00678	0.00698	0.00879	0.01484	0.01090	0.01192	0.00218	0.00618	0.00865
3430	4.07211	3.06021	1.93550	11.02986	8.75102	7.00741	36.99500	24.37268	13.13496	3.53332	2.65034	1.85580	10.60607	8.54547	7.18500	35.70240	23.69503	12.98146
3590	3.96369	3.14378	2.30889	10.38310	8.47199	7.47041	36.77044	24.07868	13.29988	3.29951	2.79468	1.84057	10.63687	8.57878	7.00957	36.41659	24.18281	13.53921
3760	3.11798	2.50000	1.81404	10.56409	8.51117	6.99706	36.12466	23.95801	13.10083	3.16185	2.55332	2.22760	10.38523	8.36016	6.98225	36.17189	23.68658	12.96830
3920	3.22427	2.48972	1.78071	10.37689	8.43620	7.20371	36.25087	24.22579	13.12368	3.16948	2.50846	1.82572	10.37990	8.33639	6.82714	36.38106	23.70099	12.98057
4080	3.11128	2.49495	1.73345	10.35149	8.37135	7.02926	36.04647	23.94456	13.02976	3.42505	2.74795	1.88025	10.57649	8.46846	6.92276	35.77824	23.70238	12.96692
4250	3.14815	2.55315	1.91772	10.35028	8.37187	6.86184	37.16017	24.75414	13.61482	3.15160	2.50584	1.82943	10.54679	8.63087	7.27210	35.80231	23.69531	12.97159
4410	3.31784	2.74786	2.00805	10.35107	8.38043	7.01346	36.58113	24.33071	13.32341	3.15445	2.50428	1.85833	10.49068	8.50150	6.88899	35.79963	23.70113	13.31434
4570	3.10678	2.56508	1.91522	10.84668	8.46545	6.88035	36.55794	23.98572	13.02940	3.23316	2.55346	1.84251	10.52672	8.36383	6.85639	35.81705	23.69988	13.01803
4740	3.09395	2.67698	1.88342	10.50570	8.47679	7.36781	36.47630	24.02601	13.05440	3.22006	2.75527	2.13147	10.52891	8.41623	6.91685	36.19136	24.08509	13.09288
4900	3.29049	2.46339	1.73498	10.52046	8.74520	7.63870	35.88332	24.06100	13.37605	3.28146	2.53967	1.89892	10.95675	9.34309	7.76405	35.70025	23.74964	13.04982	31.58	6.1	0.00	7.60	0.01264	0.01288	0.01624	0.00779	0.00580	0.00637	0.00466	0.01262	0.01676	0.00678	0.00698	0.00879	0.01484	0.01090	0.01191	0.00218	0.00619	0.00865
5070	3.20976	2.64711	2.21427	10.36451	9.41309	7.16900	36.38535	23.97643	13.02637	3.23457	2.72659	2.08781	10.42330	8.36211	6.82209	35.82428	23.69767	12.99033
5230	3.07185	2.47332	1.75332	10.35694	8.37714	7.18230	35.97366	23.97094	13.02875	3.15209	2.97227	1.83679	10.43201	8.37413	6.82521	36.02625	23.91412	13.10673
5390	3.10005	2.56633	1.75830	10.37096	8.60865	7.08638	36.17996	24.00997	13.08197	3.16168	2.52312	1.83451	10.37540	8.33411	6.92798	35.65133	23.69019	12.98763
5560	3.11127	2.45871	1.74375	10.36094	8.37470	6.87255	36.29297	24.06005	13.12096	3.54974	2.58168	1.99803	10.38616	8.33912	6.82724	36.22540	23.93425	13.04518
5720	3.10218	2.47303	1.77530	10.35195	8.37930	6.86671	36.40726	23.97248	13.45980	3.15664	2.52864	1.83657	10.62801	8.58934	7.18082	35.76541	23.71696	12.97485
5880	3.35628	2.56987	1.74693	10.48052	9.02379	7.73104	36.68215	24.01867	13.07172	4.04368	3.67745	1.91531	10.80130	8.96590	7.05595	35.82428	24.28076	13.03143
6050	3.23813	2.64475	1.76611	11.05402	8.73440	7.39385	36.21691	24.04733	13.19598	3.17136	2.51823	1.85184	10.41971	8.38836	7.02820	35.75740	23.70031	12.98618
6210	3.31961	2.62350	1.88563	10.35752	8.37788	6.86924	36.11924	23.98571	13.05344	3.19471	2.51358	1.90655	10.40073	8.46073	6.91228	35.69892	23.72224	13.01192
6370	3.09684	2.53135	1.81921	10.70531	8.51083	6.94588	36.47329	24.08406	13.11440	3.37494	2.58491	1.85372	10.38164	8.54181	6.83096	35.77341	23.76093	13.04114
6530	3.08742	2.56680	1.84965	10.37970	8.39603	6.88511	35.90455	23.92835	13.06990	3.22121	2.56973	1.99977	10.47065	8.44426	6.93075	36.69933	23.69910	13.02392	31.58	6.2	0.00	7.68	0.01264	0.01287	0.01624	0.00779	0.00579	0.00637	0.00466	0.01262	0.01676	0.00678	0.00698	0.00879	0.01484	0.01090	0.01191	0.00218	0.00618	0.00865
6700	3.27222	2.58312	1.85795	11.24675	8.79274	7.65468	36.65385	24.45285	13.13922	4.06185	3.09684	2.19138	10.83074	8.46980	6.94154	36.05697	23.96756	13.28217
6860	3.09163	2.49822	1.92246	10.60718	8.93727	7.50475	36.09837	23.97621	13.05133	3.20316	3.64338	2.91304	10.45567	8.42344	6.89203	35.92869	24.10966	14.98943
7020	3.08989	2.46162	1.74117	10.75724	8.38156	7.00002	36.39458	24.01905	13.15821	3.26905	2.67642	2.31407	10.72550	8.50136	6.86314	36.24412	24.70669	13.38079
7190	3.10079	2.49513	2.16519	10.53609	8.48014	6.95777	36.92834	24.01078	13.12182	3.30737	2.52335	1.87425	10.38693	8.32935	6.82638	35.74596	23.70285	12.97610
7350	3.12430	2.52539	1.73740	10.41492	8.49004	7.11984	36.27955	23.91879	13.09847	3.19383	2.51710	1.83044	10.46030	8.35412	6.84022	35.66640	23.69813	13.02515
7510	3.07195	2.50794	1.73053	10.35804	8.40253	6.92597	36.62959	24.44089	13.41944	3.15441	2.49921	1.86561	10.51489	8.62938	7.02659	35.76462	23.73062	12.98473
7670	3.25189	2.82585	2.09397	10.42933	8.44781	7.05580	36.10944	24.08469	13.30893	3.20991	2.53837	1.83048	10.57038	8.55163	6.95639	35.76462	23.80753	13.03282
7840	3.12693	2.46738	1.75785	10.35465	8.45736	7.13121	36.04829	23.96446	13.01402	3.28796	2.59122	1.87470	10.42640	8.45016	6.86365	36.05422	23.87402	13.22882
8000	3.07594	2.58093	1.74616	10.41399	8.45608	6.89221	35.96902	24.10518	13.18597	3.86156	2.59353	1.85069	10.55516	8.54375	7.05025	35.76328	23.81930	12.99928
8170	3.08998	2.59603	1.93890	10.82919	8.94363	7.53322	35.96295	24.10310	13.12737	3.21826	2.66755	2.11475	12.04036	8.42007	7.27302	35.85503	23.79233	13.08659	31.64	6.3	0.00	7.64	0.01264	0.01287	0.01624	0.00779	0.00579	0.00637	0.00466	0.01262	0.01676	0.00678	0.00698	0.00879	0.01484	0.01090	0.01192	0.00218	0.00618	0.00866
8330	3.68652	3.04221	2.66473	10.52897	8.42648	6.91238	36.44175	24.10249	13.40634	3.19730	2.53794	1.94206	10.46330	8.37294	6.85849	35.80537	23.78380	13.12100
8490	3.14719	2.53165	1.75685	10.83007	8.52102	7.01830	36.37680	23.95507	13.06026	3.59685	2.67290	2.23035	10.56362	8.70681	7.28625	35.83487	23.87890	13.08466
8660	3.21619	2.74544	1.90285	10.49649	8.54710	7.06757	35.99069	24.30784	13.25936	3.60904	2.77447	1.94510	10.57950	8.45574	7.02708	35.96462	23.86776	13.42523
8820	3.53693	2.65216	2.07836	10.62188	8.49092	6.88013	36.70403	24.16692	13.34369	3.38800	2.92875	2.33641	11.11603	9.07549	7.00003	35.89548	23.81110	13.12668
8980	3.25876	2.84173	2.10131	10.40321	8.40604	7.11255	36.91782	24.37566	13.81806	3.24110	2.53439	1.83242	10.79318	8.52714	6.99793	35.81073	23.76983	12.98153
9150	3.13820	2.51653	1.93028	11.54670	8.64232	7.04789	36.73935	24.01295	13.07258	3.17569	2.56138	1.84339	10.80211	8.42550	6.85333	35.98914	23.82050	13.73731
9310	3.37261	2.65697	1.93307	10.53011	8.57706	7.18010	36.38205	24.05395	13.06854	3.27020	2.60652	1.84028	10.40473	8.39224	7.06472	36.13198	24.62626	13.10515
9470	3.57907	2.60072	1.81612	10.45334	8.52168	7.01463	36.62301	24.31095	13.10688	3.30605	2.50805	1.83319	10.46087	8.35910	6.86516	35.77463	23.72942	12.99195
9640	3.15987	2.66744	2.10249	10.36679	8.37869	6.94484	36.62839	24.07446	13.03519	3.15820	2.50539	1.84356	10.39950	8.34121	6.83122	35.71209	23.99488	13.03652
9800	3.08746	2.50972	1.99066	10.47784	8.44529	6.94963	35.84012	24.00864	13.23206	3.17771	2.64628	2.77323	10.50039	8.55848	6.86122	36.73416	24.28183	13.31019	31.58	6.0	0.00	7.65	0.01264	0.01287	0.01624	0.00779	0.00579	0.00637	0.00466	0.01263	0.01676	0.00678	0.00698	0.00879	0.01484	0.01090	0.01192	0.00218	0.00618	0.00866
9960	3.35670	2.53493	1.82929	10.64875	8.53115	6.97016	36.48733	24.50947	13.29941	3.60010	2.68344	1.97803	10.59094	8.33390	6.82688	37.05976	23.73856	12.98220
10130	3.14010	2.51706	1.78150	10.53412	8.80810	7.53486	35.89165	24.00176	13.02365	4.08840	2.91629	1.88146	10.37166	8.36399	6.88787	35.71383	23.70507	12.98586
10290	3.07139	2.46504	1.75136	10.36823	8.38511	6.89223	36.59045	24.37847	13.19209	3.25621	2.59302	1.88302	10.38621	8.33751	6.93172	35.80581	23.70493	12.99034
10450	3.30033	2.55571	1.90581	10.41338	8.52375	7.01992	36.19106	23.97839	13.03386	3.18733	2.51183	1.85730	10.39677	8.35538	7.33952	36.49315	24.12566	13.27007
10610	3.16269	2.61376	2.28050	10.47084	8.82213	7.07887	36.54765	24.24247	13.31234	3.15962	2.53032	1.83542	10.70753	8.71985	7.25256	35.69659	23.69980	13.15517
10780	3.11280	2.49407	1.73645	10.43694	8.45107	6.99177	36.38438	23.99196	13.27571	3.32944	2.53128	1.87095	11.30040	8.74721	7.19117	37.08104	23.94031	12.99855
10940	3.23584	2.56374	2.22360	12.23778	10.14468	7.13003	36.61550	24.01924	13.16516	3.39509	2.64542	2.05232	10.38367	8.43203	6.91481	35.87974	23.99357	13.13040
11100	3.21361	2.53216	1.79497	10.35744	8.37695	6.87881	36.45378	24.22100	13.16335	3.17857	2.56363	1.97115	10.44215	8.38515	7.13226	35.82726	23.77970	13.09436
11270	3.26741	2.69895	2.14254	11.10759	9.75637	8.05636	36.48291	24.27778	13.45227	3.24228	2.62431	1.94334	11.11840	9.11259	7.52382	35.94878	24.32513	13.15034
11430	3.50089	2.73369	1.89021	10.83300	8.81004	7.02354	36.87826	24.38785	13.61779	3.25657	2.64551	2.19997	10.84324	9.01676	7.40748	35.84825	23.75916	13.01857	31.58	6.0	0.00	7.58	0.01264	0.01287	0.01624	0.00779	0.00579	0.00637	0.00466	0.01262	0.01676	0.00678	0.00698	0.00879	0.01484	0.01090	0.01191	0.00218	0.00618	0.00866
11600	3.66530	2.89845	2.42915	10.66665	9.21559	7.24990	36.39544	24.29813	13.21567	3.19262	2.61369	3.46532	10.58307	8.97301	7.07245	36.19576	24.10263	13.07232
11760	3.24487	3.01744	1.92514	10.89681	9.62785	7.79550	36.40684	25.18042	13.63574	4.15889	3.46796	2.20536	10.59311	8.58484	6.99200	36.50682	24.21644	12.99589
11920	3.17228	2.65459	1.96186	10.76725	8.47433	6.87487	36.42088	24.08187	13.11511	3.17523	2.58080	1.88660	10.84333	8.82317	7.18907	35.72929	23.70145	12.97971
12080	3.29239	2.78418	1.92541	10.35771	8.48566	7.06968	36.32560	24.02903	13.15087	3.61259	2.94001	2.01839	10.46737	8.36054	6.96270	35.69613	23.69009	12.98043
