WetView ver 7.1	07-18-2018	11:51:55
AC9 Absorption and Attenuation Meter
00000266		; Serial number
2	; structure version number
Reserved
0.000000	0.000000		; Depth calibration
19200			; Baud rate
0.100000			; Path length (meters)
31			; number of temperature calibration bins
				12.59339	13.44920	14.48425	15.49668	16.50852	17.49564	18.50545	19.52458	20.50176	21.48889	22.47318	23.48707	24.50962	25.49370	26.49784	27.51372	28.50746	29.47237	30.47938	31.50214	32.50470	33.49235	34.50337	35.50914	36.50618	37.52058	38.51018	39.51308	40.49994	41.49866	42.47204	; temperature bins
a650	Blue	20.34952		-0.00383	-0.00415	-0.00430	-0.00391	-0.00363	-0.00317	-0.00269	-0.00237	-0.00179	-0.00130	-0.00099	-0.00071	-0.00015	0.00000	0.00004	-0.00001	0.00015	0.00036	0.00058	0.00101	0.00161	0.00132	0.00160	0.00169	0.00242	0.00273	0.00336	0.00365	0.00427	0.00566	0.00670		; offset and temperature correction info
a676	Green	20.51193		-0.00398	-0.00384	-0.00360	-0.00306	-0.00302	-0.00255	-0.00235	-0.00212	-0.00163	-0.00136	-0.00118	-0.00089	-0.00029	0.00000	0.00068	0.00082	0.00099	0.00137	0.00145	0.00212	0.00260	0.00252	0.00321	0.00354	0.00457	0.00535	0.00617	0.00648	0.00742	0.00887	0.01002		; offset and temperature correction info
a715	Brown	20.23230		-0.00421	-0.00394	-0.00391	-0.00291	-0.00264	-0.00192	-0.00204	-0.00179	-0.00188	-0.00239	-0.00180	-0.00187	-0.00099	0.00000	0.00084	0.00162	0.00188	0.00224	0.00321	0.00381	0.00466	0.00528	0.00588	0.00696	0.00859	0.01041	0.01148	0.01282	0.01333	0.01456	0.01617		; offset and temperature correction info
c510	Red	20.40042		-0.00261	-0.00247	-0.00258	-0.00225	-0.00203	-0.00197	-0.00199	-0.00203	-0.00154	-0.00103	-0.00069	-0.00019	-0.00007	0.00000	0.00011	-0.00021	-0.00042	-0.00056	-0.00040	0.00011	0.00036	0.00050	0.00077	0.00079	0.00050	0.00042	0.00043	0.00092	0.00147	0.00200	0.00232		; offset and temperature correction info
c532	Magenta	20.40760		-0.00248	-0.00265	-0.00278	-0.00279	-0.00296	-0.00292	-0.00238	-0.00206	-0.00129	-0.00096	-0.00092	-0.00052	-0.00009	0.00000	0.00007	-0.00049	-0.00136	-0.00107	-0.00079	-0.00065	-0.00074	-0.00105	-0.00152	-0.00192	-0.00236	-0.00269	-0.00252	-0.00233	-0.00172	-0.00128	-0.00067		; offset and temperature correction info
c555	Black	20.50654		-0.00053	-0.00063	-0.00106	-0.00094	-0.00068	-0.00055	-0.00053	-0.00039	-0.00028	-0.00025	-0.00011	-0.00035	-0.00007	0.00000	-0.00037	-0.00055	-0.00036	-0.00014	0.00019	0.00044	0.00032	0.00040	0.00050	0.00028	0.00014	0.00013	0.00030	0.00073	0.00117	0.00176	0.00241		; offset and temperature correction info
a412	LtBlue	17.15231		-0.01972	-0.01823	-0.01612	-0.01381	-0.01272	-0.01080	-0.00959	-0.00866	-0.00710	-0.00532	-0.00354	-0.00148	-0.00028	0.00000	0.00176	0.00297	0.00394	0.00440	0.00453	0.00487	0.00804	0.00856	0.01065	0.01248	0.01388	0.01439	0.01659	0.01881	0.02256	0.02450	0.02719		; offset and temperature correction info
a440	LtGreen	18.00171		-0.00729	-0.00642	-0.00581	-0.00502	-0.00426	-0.00349	-0.00244	-0.00218	-0.00179	-0.00101	-0.00046	-0.00006	0.00036	0.00000	0.00040	0.00045	0.00030	-0.00015	-0.00024	-0.00035	0.00012	-0.00013	-0.00033	-0.00089	-0.00142	-0.00189	-0.00231	-0.00205	-0.00140	-0.00140	-0.00146		; offset and temperature correction info
a488	Yellow	18.86491		-0.00113	-0.00102	-0.00106	-0.00064	-0.00027	-0.00020	-0.00030	-0.00037	-0.00047	-0.00059	-0.00052	-0.00012	0.00008	0.00000	0.00025	0.00012	-0.00013	-0.00043	-0.00065	-0.00076	-0.00025	0.00010	0.00090	0.00111	0.00113	0.00104	0.00073	0.00068	0.00120	0.00186	0.00258		; offset and temperature correction info
c650	Blue	20.46075		-0.00145	-0.00097	-0.00092	-0.00139	-0.00185	-0.00196	-0.00237	-0.00266	-0.00238	-0.00163	-0.00083	-0.00041	-0.00010	0.00000	0.00005	-0.00001	0.00015	0.00034	0.00029	0.00065	0.00101	0.00164	0.00126	0.00156	0.00175	0.00270	0.00287	0.00371	0.00407	0.00473	0.00534		; offset and temperature correction info
c676	Green	20.10118		-0.00170	-0.00144	-0.00149	-0.00177	-0.00188	-0.00194	-0.00198	-0.00196	-0.00177	-0.00156	-0.00140	-0.00091	-0.00033	0.00000	0.00050	0.00092	0.00110	0.00141	0.00167	0.00199	0.00216	0.00265	0.00269	0.00289	0.00315	0.00374	0.00367	0.00408	0.00486	0.00561	0.00646		; offset and temperature correction info
c715	Brown	19.91219		-0.01201	-0.01097	-0.00859	-0.00680	-0.00651	-0.00592	-0.00535	-0.00440	-0.00387	-0.00303	-0.00222	-0.00153	-0.00028	0.00000	0.00093	0.00149	0.00247	0.00322	0.00330	0.00427	0.00373	0.00464	0.00536	0.00551	0.00643	0.00733	0.00779	0.00884	0.00899	0.01021	0.01120		; offset and temperature correction info
a510	Red	19.21192		0.00201	0.00193	0.00158	0.00098	0.00089	0.00049	0.00011	-0.00016	-0.00016	-0.00005	0.00028	0.00025	0.00006	0.00000	0.00035	-0.00022	-0.00023	-0.00080	-0.00144	-0.00154	-0.00153	-0.00204	-0.00220	-0.00219	-0.00190	-0.00128	-0.00069	-0.00018	0.00068	0.00152	0.00241		; offset and temperature correction info
a532	Magenta	19.41084		-0.00097	-0.00072	-0.00060	-0.00081	-0.00062	-0.00071	-0.00040	0.00020	0.00028	0.00043	0.00000	-0.00035	0.00007	0.00000	-0.00011	-0.00059	-0.00080	-0.00098	-0.00137	-0.00162	-0.00163	-0.00130	-0.00073	-0.00018	0.00090	0.00185	0.00175	0.00247	0.00291	0.00327	0.00349		; offset and temperature correction info
a555	Black	19.69776		0.00171	0.00183	0.00183	0.00186	0.00191	0.00170	0.00115	0.00131	0.00097	0.00073	0.00060	0.00013	0.00015	0.00000	0.00014	-0.00029	-0.00066	-0.00082	-0.00116	-0.00139	-0.00134	-0.00167	-0.00119	-0.00093	-0.00048	0.00053	0.00111	0.00095	0.00178	0.00206	0.00273		; offset and temperature correction info
c412	LtBlue	19.91180		-0.02051	-0.01853	-0.01589	-0.01311	-0.01059	-0.00877	-0.00705	-0.00581	-0.00413	-0.00231	-0.00098	-0.00066	-0.00011	0.00000	-0.00013	-0.00085	-0.00170	-0.00170	-0.00302	-0.00330	-0.00429	-0.00551	-0.00626	-0.00775	-0.00978	-0.01181	-0.01113	-0.01108	-0.01116	-0.01192	-0.01291		; offset and temperature correction info
c440	LtGreen	20.06241		-0.01064	-0.00992	-0.00892	-0.00766	-0.00639	-0.00531	-0.00478	-0.00384	-0.00287	-0.00187	-0.00102	-0.00063	-0.00023	0.00000	-0.00007	-0.00053	-0.00090	-0.00119	-0.00169	-0.00197	-0.00226	-0.00257	-0.00260	-0.00289	-0.00394	-0.00470	-0.00481	-0.00493	-0.00520	-0.00580	-0.00620		; offset and temperature correction info
c488	Yellow	20.35984		-0.01125	-0.01082	-0.00966	-0.00833	-0.00726	-0.00661	-0.00579	-0.00500	-0.00389	-0.00278	-0.00167	-0.00113	-0.00041	0.00000	0.00055	0.00121	0.00187	0.00226	0.00222	0.00251	0.00281	0.00359	0.00414	0.00427	0.00401	0.00404	0.00486	0.00563	0.00638	0.00684	0.00718		; offset and temperature correction info
0.003500	0.004000	0.015000	0.020000	0.015000	0.020000	2500.000000	2000.000000	1000.000000	; maxANoise	maxCNoise	maxADifference	maxCDifference	minACounts	minCCounts	minRCounts	maxTempSdev	maxDepthSdev
0			; auxilliary capabilities
1			; acquisition binsize
0	7.57598	11.80784	7.96400	26.58695	19.91361	18.17235	12.75637	7.74657	7.34384	29.18062	11.96483	20.65624	2.35586	7.20318	10.76784	24.91069	21.88147	44.11296	26.35	6.1	0.00	7.32	0.01272	0.01289	0.01663	0.00767	0.00572	0.00627	0.00467	0.01264	0.01683	0.00667	0.00678	0.00877	0.01488	0.01095	0.01195	0.00214	0.00608	0.00855
160	5.54653	6.04064	6.81628	39.31695	20.16287	26.34879	9.68102	13.39999	12.67729	36.91423	24.39522	16.82136	11.93580	9.18009	8.39095	61.05016	66.48474	44.34739
320	4.87937	4.55532	4.41564	30.70773	37.90593	28.43181	9.77960	5.48035	5.72129	22.90080	30.47271	29.58246	5.17257	6.26475	6.27777	46.11577	26.05547	19.87780
490	6.39018	5.50650	5.98603	28.45593	15.97979	11.24739	9.67509	12.53459	8.08412	7.01849	14.60105	28.19232	6.28649	6.17043	5.63697	11.34966	7.04258	7.53096
650	4.99218	6.01141	6.68350	11.01638	8.63028	6.32767	10.50513	6.35070	7.02353	7.03487	5.58419	5.99572	4.34868	3.87730	5.52749	11.91374	9.50490	7.74322
810	7.32902	4.96454	1.91401	12.41214	4.92263	9.04187	9.79077	8.60208	8.53189	18.69167	17.77190	12.57676	6.43262	6.28100	4.84327	22.29607	16.83298	12.18837
980	4.72292	5.66019	3.35679	8.98233	8.59229	19.31872	8.49024	8.10312	5.73331	17.19877	11.63148	15.56312	10.96231	3.35934	8.01884	19.86504	28.15067	19.88080
1140	5.93788	5.28723	3.51721	7.63243	17.80779	8.81744	8.07941	7.08693	4.49813	18.91642	14.16638	29.22661	3.70045	2.08041	2.45563	27.31640	14.31561	20.53280
1300	3.33331	3.18821	4.36386	9.84849	9.98716	12.98203	7.57795	6.53507	3.41110	16.73757	10.23888	21.55991	5.75833	7.60055	4.30528	23.95184	34.45016	20.81841
1470	4.25852	5.65143	7.46343	14.46638	18.24931	16.52901	10.71277	9.47969	5.49488	16.32734	24.88441	22.02015	8.32593	6.60325	7.55884	24.40844	35.95173	17.99522
1630	3.80007	4.30973	4.36557	22.29457	22.73581	20.16261	13.88218	12.53050	11.95382	12.90785	28.59232	18.10975	4.43813	6.75204	11.68460	41.82566	24.08219	37.55559	26.41	6.1	0.00	7.34	0.01272	0.01289	0.01663	0.00767	0.00571	0.00627	0.00467	0.01264	0.01683	0.00667	0.00678	0.00877	0.01488	0.01095	0.01195	0.00214	0.00608	0.00855
1790	6.77116	8.46813	7.43975	39.00920	29.31853	48.61733	11.16529	9.27130	3.64240	34.77278	21.07511	35.54247	4.47729	6.81174	7.69943	24.08419	28.40348	20.75784
1960	5.54959	2.78929	6.03298	35.29100	37.54233	31.26686	9.68346	7.82896	9.61431	27.97557	37.54615	46.53963	12.49676	11.51513	11.24176	83.54220	73.69365	54.71799
2120	10.14124	10.46254	9.12344	51.43025	44.64010	30.53040	14.25837	11.74379	9.53343	17.31298	13.49490	25.54103	10.41766	9.84336	8.93040	40.26037	41.06692	28.52128
2280	13.12942	8.86740	6.11554	57.62015	52.78624	34.11694	12.70147	10.97557	11.70087	30.44240	56.80114	40.07888	6.92217	9.26689	8.78857	59.83072	31.01366	18.48530
2450	5.00854	5.36875	3.01796	20.71258	31.55823	24.94535	14.57159	7.46716	6.50037	15.64615	16.70488	16.69585	8.95217	5.28998	8.72779	22.08996	28.17119	32.46994
2610	5.44785	4.09784	6.64317	54.31341	30.81843	33.16994	9.88634	6.55710	4.00093	17.33872	28.81983	20.26179	5.69593	2.95903	2.04018	15.79425	7.79745	8.34485
2770	2.57846	2.34658	2.71102	4.16692	9.52967	9.07696	6.40521	5.61627	8.06864	6.37636	7.47168	9.06748	5.93097	4.23801	3.38622	16.17578	14.77576	12.58320
2940	1.85121	2.41193	2.50585	9.49739	11.97073	14.17399	7.79323	7.05876	3.59222	10.91151	9.85269	8.98816	6.54654	6.55422	4.62486	13.07615	9.71337	10.77021
3100	3.90780	5.39373	4.10246	17.49822	9.01115	8.04783	9.68854	5.42245	7.23044	12.71664	16.24154	22.68947	9.00448	6.40308	6.25812	19.50485	19.41093	37.96767
3270	12.23819	7.78771	8.17566	30.22110	26.24136	41.83176	11.94601	10.60665	9.34081	25.97588	22.87640	41.50883	4.67696	7.37050	7.24689	27.63275	24.95933	12.86699	26.46	6.0	0.00	7.37	0.01271	0.01289	0.01662	0.00767	0.00571	0.00627	0.00467	0.01264	0.01683	0.00667	0.00678	0.00877	0.01488	0.01095	0.01195	0.00214	0.00608	0.00855
3430	3.45962	4.47275	2.20272	8.12056	18.41578	19.66564	6.06261	5.36503	5.40363	22.88601	17.96082	11.80712	5.31632	3.82799	3.68479	12.55146	7.68171	15.18548
3590	7.79973	6.80217	5.73266	9.85351	17.40203	27.00016	9.39902	8.16052	4.65076	22.50860	18.06969	29.74937	10.07711	6.84709	8.05840	27.35318	43.27076	24.55961
3760	6.41807	4.26763	5.87678	21.23248	18.07984	14.63919	9.16295	8.15393	4.98331	27.79050	17.72756	24.16972	6.94732	8.19813	8.39605	16.29164	16.48188	25.93145
3920	5.27464	5.18795	5.06277	33.51536	48.18877	25.65636	8.69885	7.55716	6.55176	11.57132	19.12581	16.37883	7.49755	9.14908	9.35414	21.28534	11.79638	33.14136
4080	5.62194	5.09053	4.14913	15.02456	31.78790	30.72495	10.99448	9.82511	7.52107	23.80370	27.62460	39.22533	6.39177	5.30065	4.03056	55.67479	20.52844	37.70100
4250	6.76092	5.47752	6.25684	35.35012	13.39759	11.65051	10.27896	6.53655	5.25209	24.84533	17.24882	18.95602	5.48112	7.70541	5.34519	22.74038	13.25758	11.94596
4410	10.46600	5.86025	9.81255	23.21933	30.27901	20.78434	12.64156	11.79292	7.09855	25.02593	50.77393	46.26665	5.17030	8.06488	7.11551	63.60919	55.52850	74.29049
4570	6.56689	5.12608	8.64244	28.43703	19.79776	15.33624	9.79288	7.42842	3.14254	35.80764	23.70363	23.19794	5.78166	3.92746	4.59289	12.30643	18.44819	26.59887
4730	4.22511	4.28071	3.45383	23.30800	22.82375	17.96127	8.77784	9.84266	9.17263	12.09522	8.40786	19.05784	6.07814	4.71942	3.73368	19.72293	24.75710	25.79022
4900	4.87680	5.36027	6.53447	26.28036	23.70131	17.09022	7.24572	7.16664	6.25773	9.59997	7.30066	11.83584	2.89875	3.59381	4.00937	11.62848	22.97541	29.61004	26.46	6.2	0.00	7.41	0.01271	0.01289	0.01662	0.00767	0.00571	0.00627	0.00467	0.01264	0.01683	0.00667	0.00678	0.00877	0.01488	0.01095	0.01195	0.00214	0.00608	0.00854
5060	4.65551	3.53401	3.09033	22.04600	15.93252	16.68364	7.90227	7.37643	2.67500	11.05622	13.90412	11.92894	2.74633	6.37798	6.41816	19.60488	28.98071	21.85099
5230	4.92911	5.30516	3.52853	24.22810	14.59234	6.20226	9.51220	8.55387	6.41925	8.90733	26.11885	11.10994	4.82075	5.18522	5.06926	18.97558	10.32875	12.30718
5390	1.92142	1.52957	1.63910	13.60755	7.77831	8.29001	8.29850	6.49460	7.21296	14.79918	15.51621	10.28730	7.93765	8.77346	4.10799	20.60728	24.86351	18.00539
5560	6.52725	5.29479	4.78006	15.68481	48.31807	41.07850	14.08435	15.05613	12.68711	43.38078	52.40200	35.34544	9.43249	10.03935	11.83791	66.91172	47.57430	57.68958
5720	8.63965	12.90926	9.48857	28.33583	28.28434	27.50316	13.01705	12.72536	15.02978	38.23332	31.74720	36.65026	11.49857	12.60964	8.24487	29.60664	27.48389	20.72634
5880	12.50667	9.26600	7.71633	10.96280	14.93389	13.69589	11.24581	10.72417	11.28807	31.82957	21.17897	24.19597	12.41113	8.87548	8.04477	22.58464	59.63914	37.75098
6050	5.98720	5.03353	1.98950	31.39211	26.67884	11.43765	6.49373	4.59796	9.28500	30.73166	17.15993	16.41147	5.38026	7.94908	7.86422	12.15336	10.39140	14.31509
6210	6.47612	5.01271	5.70783	15.51821	33.36442	19.96409	10.28768	9.81100	4.80934	43.44114	21.54964	25.73629	6.26749	7.35640	5.12644	24.03524	16.70850	33.66249
6370	5.82185	5.82875	6.91672	18.59692	35.34071	35.17677	11.18781	10.59287	9.05993	17.41995	24.89592	27.66266	5.41154	5.71970	4.18918	18.65063	19.83585	23.62380
6540	2.47455	5.46596	3.77659	18.39176	10.96306	10.90456	9.62994	9.30116	5.47071	7.04068	7.54677	9.83371	6.95427	6.31214	4.36162	10.97334	5.13228	6.61342	26.46	6.3	0.00	7.43	0.01272	0.01288	0.01662	0.00767	0.00571	0.00627	0.00467	0.01264	0.01683	0.00667	0.00678	0.00877	0.01488	0.01095	0.01195	0.00214	0.00608	0.00855
6700	1.87808	2.74360	2.56457	10.40605	19.21447	10.35298	6.48087	5.37692	7.68488	4.80051	7.60918	10.03780	5.45333	7.96054	3.81985	16.51746	13.45902	19.56142
6870	4.27120	6.44501	6.61339	20.44370	31.37864	25.99082	8.85847	7.92008	4.04202	11.90905	11.98477	19.20029	4.26855	4.42465	5.89825	21.88163	21.90864	10.36154
7030	3.03262	5.81192	4.98367	19.60152	11.25814	22.03746	11.11859	6.13349	7.38659	9.70490	15.72217	8.55477	5.15845	5.32478	5.81223	7.92970	7.80345	3.78201
7190	4.11911	5.04991	5.76500	12.99617	12.25488	20.38975	9.47693	6.51164	4.57723	11.93958	7.54935	18.33809	6.14631	5.17613	5.57713	10.97039	16.59488	17.47918
7360	4.40458	5.34439	8.18407	29.84883	12.70450	18.16636	8.93155	10.03215	6.42928	10.91089	9.73476	17.14773	7.61846	6.86919	4.47467	28.39891	23.43391	20.76758
7520	6.23880	6.03902	3.34057	9.73842	5.93717	17.44417	9.64884	7.72757	5.63854	15.37030	15.75177	12.05988	4.86407	3.75840	3.56478	10.96277	11.85679	12.57382
7690	4.38634	3.08610	4.17715	17.28237	21.78975	14.66264	9.82253	4.36808	3.47391	11.01015	12.56280	19.15753	5.63867	5.02359	5.52864	21.11603	18.25031	16.87561
7850	3.70603	2.08939	8.19261	16.03172	50.48337	17.13566	14.76368	13.13424	12.87488	41.95852	38.62804	31.59493	12.00563	10.13863	9.28281	19.90581	39.52472	35.13327
8020	7.68893	8.30459	7.22271	16.88629	18.20831	37.50027	9.00269	7.24580	7.43386	24.60610	14.21703	10.97446	8.52210	8.96184	9.19429	17.89299	21.96765	17.41418
8180	8.00776	6.87109	8.77573	19.00231	16.66996	11.07973	15.20513	10.46191	12.78768	15.84234	23.40170	16.15571	9.44905	6.98487	8.93064	24.95148	17.07190	7.64230	26.46	6.2	0.00	7.43	0.01272	0.01288	0.01662	0.00767	0.00571	0.00627	0.00467	0.01264	0.01683	0.00667	0.00678	0.00877	0.01488	0.01095	0.01195	0.00214	0.00608	0.00855
8340	6.33355	8.05598	5.15214	18.66017	17.78832	27.25629	12.71681	10.14096	3.89699	24.39267	16.44747	12.08522	8.47186	8.04132	4.22921	15.74284	10.20170	13.69649
8510	4.90257	3.14522	4.32252	12.11978	15.46090	9.30033	6.75294	5.99772	5.40926	14.16759	7.95974	13.54799	4.34184	2.99504	4.56561	10.91293	9.35090	18.65987
8670	3.92681	2.88945	5.32784	11.20482	16.41127	19.78139	10.53118	7.21297	4.44697	6.39669	6.64711	7.92946	4.79986	3.47960	4.11147	17.60715	10.19194	8.52185
8840	3.23185	1.79433	4.73547	18.47725	13.38472	18.76447	6.63837	6.39911	6.51462	9.33008	7.79179	5.56356	3.04816	2.96508	5.71491	11.10027	7.38815	21.91475
9000	3.47574	2.83048	3.59614	6.17124	9.61923	11.87876	9.18575	7.95102	6.10187	7.57570	6.94385	12.97534	7.56597	5.58066	6.91124	20.55694	14.32387	16.68963
9170	4.46276	4.13757	4.08899	18.43643	20.16326	23.02961	5.58075	7.50188	4.59224	7.39782	10.22718	10.66419	4.25914	7.17920	4.65100	18.20601	14.58954	24.73886
9330	5.63704	6.25985	5.46396	26.34386	20.10408	15.39923	11.68036	12.08961	5.62896	28.21599	13.39529	23.92249	5.84397	6.41415	6.29073	39.16277	25.19586	27.87830
9500	6.34561	4.97565	3.98161	31.49803	30.51046	17.51192	12.62520	11.14491	6.28508	20.51699	17.25947	11.23646	6.98486	3.27840	2.26174	8.86981	5.51243	8.30944
9660	1.18457	2.25881	6.33264	14.77894	12.13308	29.94323	9.97885	9.32646	12.08808	16.53237	21.66233	25.47399	9.64672	11.23498	10.76300	30.89193	45.54913	35.32733
9820	5.39529	4.55596	3.44609	28.75197	23.66136	20.20637	12.86444	8.22780	8.54778	16.07857	19.61663	17.83083	4.39443	5.38919	8.18553	32.74001	19.75816	22.04414	26.46	6.2	0.00	7.40	0.01271	0.01288	0.01662	0.00767	0.00571	0.00627	0.00467	0.01264	0.01683	0.00667	0.00679	0.00877	0.01488	0.01095	0.01195	0.00214	0.00608	0.00855
9990	5.91433	6.76980	5.73689	26.76805	25.17484	30.18465	13.44207	10.62950	8.58670	16.74980	28.24888	16.16965	7.78226	8.00868	7.23499	38.31264	38.35857	38.00383
10150	5.85426	8.21244	5.61641	17.34440	37.55715	41.89986	14.33418	10.00195	9.81691	20.89031	27.64012	17.81931	10.20222	5.49179	8.12098	26.03154	35.05466	42.45229
10310	10.02559	13.18850	10.29539	32.63112	48.36915	35.38275	16.76251	11.57752	11.02601	41.49688	38.21549	47.75011	9.55438	8.44961	9.71755	24.53494	23.29861	24.65440
10480	5.36673	4.91639	5.69906	18.55842	18.31310	19.04098	8.91835	7.74948	5.53574	37.43027	14.60316	18.08451	8.69778	5.13819	4.87998	19.83661	13.85515	20.00548
10640	7.96249	6.83698	6.71168	25.41341	21.31466	11.87744	7.55054	5.05381	6.66512	4.48812	23.24974	19.12379	9.12356	5.89425	6.42933	32.20145	38.43889	18.68978
10810	5.12230	1.88649	2.35332	20.75830	17.90124	10.24501	8.97733	8.85605	5.00620	15.71181	9.88124	9.03537	6.34338	6.57599	4.86479	8.44824	8.05651	9.68116
10970	4.50555	5.23857	3.25923	7.18486	12.81635	8.40385	8.28871	4.99947	2.97268	9.84897	9.75529	5.59479	3.17814	5.08654	6.03432	8.76270	5.95811	5.26847
11140	5.77997	4.74674	2.73608	4.86112	7.64445	8.23579	7.00093	9.59937	3.78031	13.63482	3.77712	13.84778	3.54466	2.75613	2.74060	25.43084	8.36531	15.71279
11300	5.55405	3.29204	5.94614	30.01282	27.92054	14.53905	11.24757	7.36092	6.11733	17.39809	10.82478	12.61850	6.20216	11.10866	6.18384	16.13961	16.58437	14.79120
11470	6.89312	4.75859	5.97915	6.42838	15.46652	14.52287	9.67935	7.66303	7.24139	7.70821	8.87310	7.74289	6.11251	5.48003	3.94616	23.75971	32.81253	25.70228	26.46	6.1	0.00	7.32	0.01271	0.01288	0.01662	0.00767	0.00571	0.00627	0.00467	0.01264	0.01683	0.00667	0.00678	0.00877	0.01488	0.01095	0.01195	0.00214	0.00608	0.00855
11630	4.24834	5.25778	5.42270	25.34508	47.62813	57.60512	12.45410	8.01813	8.56392	42.59264	51.81111	33.10559	8.35256	7.55983	7.10345	21.42475	28.25461	30.76546
11800	9.78519	8.09568	6.97330	14.01358	25.31343	19.32715	14.31117	10.40684	5.75004	29.32924	25.97935	19.21231	5.60450	8.48388	7.45805	16.40249	22.91802	28.75141
11960	2.59424	3.44960	8.15957	13.71844	14.36551	13.07652	16.54150	16.49677	10.83731	16.74963	34.98729	28.15207	6.62019	8.40942	11.39050	25.89401	33.81238	33.61691
