WetView ver 7.1	07-17-2019	10:41:31
AC9 Absorption and Attenuation Meter
00000311		; Serial number
2	; structure version number
Reserved
0.000000	0.000000		; Depth calibration
19200			; Baud rate
0.100000			; Path length (meters)
23			; number of temperature calibration bins
				12.61517	13.44096	14.46844	15.49904	16.50682	17.50108	18.49752	19.51783	20.49177	21.49009	22.48286	23.50673	24.54012	25.54812	26.49986	27.49321	28.50960	29.48671	30.47471	31.49432	32.50437	33.48679	34.49133	; temperature bins
a650	Blue	18.61587		0.01156	0.01096	0.01010	0.00930	0.00851	0.00774	0.00661	0.00573	0.00499	0.00402	0.00285	0.00203	0.00096	0.00000	-0.00110	-0.00152	-0.00210	-0.00247	-0.00259	-0.00317	-0.00346	-0.00380	-0.00403		; offset and temperature correction info
a676	Green	18.78942		0.00964	0.00899	0.00863	0.00813	0.00730	0.00639	0.00545	0.00448	0.00385	0.00301	0.00233	0.00165	0.00046	0.00000	-0.00106	-0.00167	-0.00251	-0.00280	-0.00316	-0.00329	-0.00377	-0.00392	-0.00441		; offset and temperature correction info
a715	Brown	18.59217		0.01171	0.01109	0.01043	0.00975	0.00878	0.00789	0.00685	0.00572	0.00469	0.00356	0.00255	0.00160	0.00061	0.00000	-0.00063	-0.00113	-0.00152	-0.00183	-0.00226	-0.00293	-0.00364	-0.00404	-0.00473		; offset and temperature correction info
c510	Red	18.18396		-0.00549	-0.00480	-0.00383	-0.00272	-0.00202	-0.00118	-0.00044	-0.00038	-0.00015	-0.00021	0.00013	0.00007	-0.00007	0.00000	-0.00007	-0.00065	-0.00045	-0.00018	0.00007	0.00039	-0.00001	-0.00002	-0.00045		; offset and temperature correction info
c532	Magenta	18.26528		-0.00721	-0.00645	-0.00581	-0.00518	-0.00465	-0.00345	-0.00281	-0.00270	-0.00182	-0.00141	-0.00108	-0.00072	-0.00022	0.00000	0.00044	0.00030	0.00031	-0.00006	-0.00052	-0.00089	-0.00142	-0.00149	-0.00154		; offset and temperature correction info
c555	Black	18.37125		-0.00430	-0.00419	-0.00381	-0.00319	-0.00286	-0.00254	-0.00205	-0.00196	-0.00138	-0.00137	-0.00067	-0.00051	-0.00030	0.00000	0.00067	0.00087	0.00057	0.00027	-0.00015	-0.00089	-0.00127	-0.00137	-0.00150		; offset and temperature correction info
a412	LtBlue	15.33566		-0.06011	-0.05567	-0.05012	-0.04441	-0.03922	-0.03412	-0.02941	-0.02503	-0.02049	-0.01588	-0.01121	-0.00784	-0.00311	0.00000	0.00273	0.00611	0.00757	0.00871	0.01066	0.01299	0.01539	0.01781	0.02175		; offset and temperature correction info
a440	LtGreen	16.05925		-0.01380	-0.01214	-0.01039	-0.00858	-0.00690	-0.00532	-0.00426	-0.00322	-0.00230	-0.00158	-0.00055	0.00006	0.00001	0.00000	0.00017	0.00016	-0.00094	-0.00222	-0.00363	-0.00486	-0.00567	-0.00651	-0.00782		; offset and temperature correction info
a488	Yellow	16.82827		0.00255	0.00293	0.00331	0.00354	0.00373	0.00378	0.00363	0.00350	0.00291	0.00225	0.00215	0.00142	0.00099	0.00000	-0.00092	-0.00169	-0.00295	-0.00396	-0.00479	-0.00542	-0.00582	-0.00604	-0.00663		; offset and temperature correction info
c650	Blue	18.49287		-0.00570	-0.00516	-0.00456	-0.00403	-0.00346	-0.00232	-0.00132	-0.00122	-0.00073	-0.00066	-0.00035	-0.00016	0.00003	0.00000	0.00044	0.00078	0.00108	0.00057	0.00040	-0.00042	-0.00033	-0.00029	-0.00034		; offset and temperature correction info
c676	Green	18.50570		0.00299	0.00293	0.00287	0.00293	0.00278	0.00294	0.00317	0.00251	0.00243	0.00215	0.00139	0.00123	0.00068	0.00000	-0.00041	-0.00106	-0.00205	-0.00268	-0.00325	-0.00413	-0.00495	-0.00610	-0.00674		; offset and temperature correction info
c715	Brown	17.88888		0.00826	0.00812	0.00773	0.00790	0.00766	0.00758	0.00753	0.00650	0.00571	0.00461	0.00359	0.00222	0.00101	0.00000	-0.00146	-0.00284	-0.00385	-0.00448	-0.00463	-0.00513	-0.00623	-0.00715	-0.00838		; offset and temperature correction info
a510	Red	17.18050		0.00353	0.00364	0.00354	0.00361	0.00381	0.00381	0.00356	0.00332	0.00277	0.00229	0.00176	0.00116	0.00036	0.00000	-0.00014	-0.00069	-0.00088	-0.00147	-0.00150	-0.00129	-0.00120	-0.00134	-0.00091		; offset and temperature correction info
a532	Magenta	17.40228		0.00550	0.00548	0.00526	0.00479	0.00464	0.00422	0.00393	0.00328	0.00253	0.00212	0.00136	0.00085	0.00039	0.00000	-0.00059	-0.00146	-0.00188	-0.00262	-0.00330	-0.00393	-0.00491	-0.00540	-0.00605		; offset and temperature correction info
a555	Black	17.72308		0.00849	0.00832	0.00800	0.00760	0.00724	0.00655	0.00580	0.00495	0.00435	0.00347	0.00252	0.00153	0.00049	0.00000	-0.00050	-0.00155	-0.00214	-0.00306	-0.00350	-0.00411	-0.00470	-0.00539	-0.00570		; offset and temperature correction info
c412	LtBlue	16.72802		-0.05949	-0.05458	-0.04744	-0.04134	-0.03547	-0.03064	-0.02511	-0.02047	-0.01574	-0.01163	-0.00761	-0.00442	-0.00204	0.00000	0.00100	0.00051	-0.00043	-0.00239	-0.00475	-0.00629	-0.00827	-0.00955	-0.01337		; offset and temperature correction info
c440	LtGreen	17.42637		-0.02723	-0.02503	-0.02216	-0.01930	-0.01691	-0.01394	-0.01125	-0.00926	-0.00732	-0.00582	-0.00401	-0.00226	-0.00093	0.00000	0.00082	0.00123	0.00133	0.00097	0.00038	-0.00003	-0.00022	-0.00023	-0.00125		; offset and temperature correction info
c488	Yellow	18.03666		-0.00640	-0.00554	-0.00465	-0.00357	-0.00276	-0.00154	-0.00067	-0.00031	-0.00014	-0.00012	0.00046	0.00032	0.00020	0.00000	0.00001	-0.00024	-0.00060	-0.00084	-0.00126	-0.00180	-0.00276	-0.00304	-0.00427		; offset and temperature correction info
0.003500	0.004000	0.015000	0.020000	0.015000	0.020000	2500.000000	2000.000000	1000.000000	; maxANoise	maxCNoise	maxADifference	maxCDifference	minACounts	minCCounts	minRCounts	maxTempSdev	maxDepthSdev
0			; auxilliary capabilities
1			; acquisition binsize
0	2.59957	2.84062	2.15767	17.17332	16.34227	15.55712	8.78758	6.67958	4.56891	13.08731	12.93715	12.11961	3.96898	3.47626	3.10153	22.62811	20.36089	18.01233	34.34	6.3	0.00	-2.04	0.01731	0.01199	0.01518	0.01827	0.01890	0.01478	0.00546	0.01513	0.02004	0.01858	0.01286	0.01639	0.01705	0.01762	0.01377	0.00575	0.01615	0.02149
160	2.57986	2.85422	2.19428	17.15965	16.32904	15.54022	8.92413	6.82953	4.70953	13.07535	12.90195	12.09068	4.09496	3.56853	3.16948	22.59512	20.33322	17.99528
320	2.59150	2.83433	2.14787	17.17011	16.33793	15.55661	8.76771	6.66634	4.56067	13.08238	12.93171	12.11208	3.96005	3.47018	3.09426	22.62568	20.34898	17.99887
470	2.58556	2.86449	2.20581	17.15085	16.32136	15.53259	8.94669	6.83585	4.70355	13.06310	12.89471	12.08264	4.07994	3.54705	3.14511	22.58006	20.31872	17.98778
640	2.56642	2.81303	2.13159	17.16318	16.33767	15.55819	8.75625	6.66631	4.57587	13.08324	12.91674	12.09764	4.00491	3.52272	3.15362	22.59512	20.32676	17.98270
790	2.63009	2.88277	2.20372	17.14376	16.31697	15.53195	8.87625	6.76454	4.63773	13.06556	12.89851	12.08460	4.02161	3.50213	3.11383	22.58861	20.32750	17.98929
950	2.56462	2.81942	2.14536	17.15517	16.32136	15.54043	8.80135	6.70476	4.59946	13.06587	12.90044	12.08547	4.00723	3.50342	3.11873	22.58842	20.32405	17.98571
1110	2.57480	2.82916	2.15302	17.14573	16.31705	15.53314	8.80300	6.71110	4.59977	13.06026	12.89101	12.07842	4.00347	3.49513	3.10573	22.57913	20.31429	17.97647
1270	2.56280	2.81424	2.14190	17.14303	16.31254	15.52643	8.79327	6.68937	4.58358	13.05818	12.89093	12.07752	3.98661	3.48648	3.10317	22.57449	20.31321	17.97532
1430	2.56382	2.82264	2.15066	17.14129	16.31456	15.52758	8.80898	6.71764	4.60844	13.05993	12.89014	12.07667	4.01268	3.50879	3.12264	22.56335	20.30868	17.97355
1600	2.57819	2.83543	2.15707	17.13376	16.30960	15.52328	8.81068	6.71511	4.60728	13.05770	12.88998	12.07594	4.01004	3.50845	3.12101	22.57521	20.31273	17.97532	34.34	6.0	0.00	-2.04	0.01732	0.01200	0.01519	0.01827	0.01890	0.01477	0.00546	0.01514	0.02006	0.01858	0.01286	0.01639	0.01706	0.01763	0.01377	0.00575	0.01615	0.02149
1760	2.57609	2.83479	2.15978	17.14155	16.31261	15.52735	8.82150	6.72651	4.61688	13.06260	12.89315	12.07694	4.01342	3.51125	3.12498	22.57855	20.30707	17.97020
1920	2.57806	2.83317	2.15742	17.13541	16.30838	15.52538	8.83057	6.72373	4.61540	13.06058	12.88832	12.07689	4.01167	3.50778	3.12168	22.56815	20.30579	17.96778
2090	2.57335	2.83148	2.15992	17.13444	16.30809	15.52365	8.82880	6.71931	4.61336	13.05729	12.88436	12.07234	4.00956	3.50827	3.11979	22.57539	20.30224	17.96634
2250	2.57313	2.83239	2.15861	17.13280	16.30667	15.52556	8.83582	6.72699	4.61719	13.06165	12.88744	12.07582	4.01242	3.50935	3.12547	22.57409	20.30731	17.97097
2420	2.57746	2.83526	2.15938	17.13388	16.30389	15.52216	8.82766	6.72379	4.61359	13.05861	12.88457	12.07180	4.01223	3.51184	3.12427	22.56964	20.31145	17.97182
2580	2.57837	2.83654	2.16104	17.13347	16.30991	15.52419	8.81518	6.72307	4.61313	13.05941	12.88282	12.07393	4.01181	3.50838	3.12153	22.56685	20.30795	17.96783
2750	2.57597	2.83573	2.16159	17.13591	16.30980	15.52489	8.82920	6.72483	4.61977	13.06137	12.88451	12.07399	4.01220	3.51083	3.12393	22.57669	20.30800	17.97127
2910	2.57517	2.83257	2.16005	17.13100	16.30293	15.52216	8.82652	6.72107	4.61476	13.05572	12.88116	12.06863	4.01080	3.50943	3.12201	22.58655	20.30830	17.96830
3080	2.57749	2.83351	2.16073	17.12810	16.30089	15.52137	8.82561	6.72631	4.61487	13.05447	12.87897	12.06869	4.00985	3.50704	3.12038	22.56370	20.30357	17.96522
3240	2.58318	2.84098	2.16521	17.12540	16.29735	15.51844	8.82556	6.73213	4.62026	13.05485	12.87943	12.06884	4.01836	3.51436	3.12439	22.57966	20.30474	17.96594	34.34	6.2	0.00	-2.04	0.01733	0.01201	0.01519	0.01826	0.01890	0.01477	0.00547	0.01515	0.02007	0.01858	0.01286	0.01639	0.01707	0.01764	0.01378	0.00575	0.01614	0.02148
3410	2.57961	2.83777	2.16023	17.12596	16.29683	15.51665	8.82021	6.73007	4.61813	13.05487	12.87637	12.06752	4.01499	3.51415	3.12625	22.57259	20.31109	17.97018
3570	2.58280	2.83759	2.16252	17.12705	16.30186	15.51966	8.83651	6.72958	4.62109	13.05694	12.87848	12.07055	4.01564	3.51146	3.12280	22.56108	20.31380	17.96936
3730	2.58201	2.83670	2.16420	17.12928	16.30235	15.52318	8.82739	6.72913	4.61823	13.05608	12.87972	12.06895	4.01571	3.51355	3.12296	22.57352	20.30829	17.96630
3900	2.58122	2.83489	2.16426	17.12361	16.29751	15.51865	8.83719	6.72480	4.61960	13.05433	12.87705	12.06592	4.01596	3.51209	3.12686	22.59287	20.30888	17.96660
4070	2.58118	2.83794	2.16424	17.12217	16.29927	15.51693	8.82619	6.72539	4.61947	13.05412	12.87560	12.06468	4.01415	3.51221	3.12351	22.57315	20.30459	17.96401
4230	2.58270	2.84202	2.16726	17.12796	16.30103	15.52038	8.83001	6.73440	4.62391	13.05517	12.87795	12.06787	4.01476	3.51472	3.12806	22.59287	20.31144	17.96881
4390	2.58417	2.83712	2.16323	17.12300	16.29751	15.51608	8.82904	6.72744	4.61792	13.05198	12.87344	12.06480	4.01141	3.51189	3.12461	22.56944	20.30523	17.96545
4560	2.58033	2.83239	2.16284	17.11575	16.28956	15.51180	8.82961	6.72309	4.61686	13.05010	12.87020	12.06020	4.01337	3.50917	3.12471	22.56739	20.30179	17.96052
4730	2.58154	2.83900	2.16343	17.11818	16.29215	15.51077	8.82779	6.72772	4.61883	13.04640	12.87012	12.05620	4.01286	3.51396	3.12786	22.57352	20.30361	17.96074
4890	2.58781	2.84246	2.16958	17.11619	16.29112	15.50924	8.83933	6.73531	4.62535	13.04584	12.86992	12.05889	4.01342	3.51668	3.12924	22.56210	20.30297	17.95499	34.28	6.1	0.00	-2.04	0.01734	0.01201	0.01520	0.01826	0.01889	0.01477	0.00547	0.01516	0.02008	0.01857	0.01286	0.01639	0.01708	0.01765	0.01379	0.00575	0.01614	0.02148
5060	2.58564	2.84117	2.16736	17.11657	16.28975	15.50803	8.82508	6.73139	4.62424	13.04496	12.86860	12.05812	4.01674	3.51550	3.12717	22.55468	20.28959	17.95350
5220	2.58582	2.84056	2.16848	17.11498	16.29112	15.51094	8.82554	6.73618	4.62230	13.04546	12.86966	12.05786	4.01880	3.51591	3.12720	22.56192	20.29446	17.95562
5390	2.58549	2.84175	2.16639	17.11639	16.29107	15.50754	8.83448	6.73125	4.62464	13.04321	12.86863	12.05709	4.01872	3.51775	3.13309	22.55895	20.30189	17.95884
5550	2.58689	2.84334	2.16955	17.12000	16.29638	15.50766	8.82491	6.73518	4.62563	13.04517	12.87169	12.05936	4.01924	3.51850	3.12962	22.56266	20.29549	17.95639
5720	2.58418	2.83833	2.16575	17.11830	16.29239	15.50476	8.82690	6.73443	4.62555	13.04050	12.86721	12.05498	4.01625	3.51365	3.12701	22.55617	20.29023	17.94984
5880	2.58399	2.83952	2.16956	17.11980	16.29589	15.50582	8.83163	6.73222	4.62501	13.04425	12.86900	12.05918	4.01902	3.51600	3.13154	22.56619	20.29613	17.95125
6050	2.58629	2.84430	2.17023	17.11874	16.29294	15.50276	8.83072	6.73544	4.62409	13.04146	12.86681	12.05589	4.01618	3.51501	3.12617	22.56136	20.29692	17.95232
6210	2.58128	2.83853	2.16513	17.11959	16.29431	15.50376	8.82981	6.73429	4.62433	13.03693	12.86338	12.05214	4.02027	3.52069	3.13072	22.55932	20.29082	17.95259
6380	2.58791	2.84138	2.16607	17.12156	16.29444	15.50518	8.83665	6.73269	4.62505	13.04143	12.86876	12.05595	4.01622	3.51480	3.13023	22.56210	20.29008	17.94946
6540	2.58996	2.84611	2.17147	17.11815	16.29396	15.50448	8.84443	6.74238	4.62983	13.04014	12.87042	12.05565	4.02444	3.52042	3.13258	22.56570	20.28819	17.94996	34.34	6.2	0.00	-2.04	0.01734	0.01201	0.01520	0.01826	0.01889	0.01477	0.00547	0.01516	0.02008	0.01857	0.01286	0.01639	0.01708	0.01765	0.01379	0.00575	0.01614	0.02148
6710	2.58962	2.84570	2.16891	17.11372	16.28751	15.50097	8.83816	6.73493	4.62625	13.03486	12.86494	12.05105	4.02366	3.52117	3.13465	22.54196	20.28814	17.95290
6870	2.59116	2.84415	2.17128	17.11636	16.28925	15.50278	8.84517	6.74093	4.63156	13.03655	12.86910	12.05386	4.02281	3.51736	3.13050	22.56849	20.28519	17.94630
7040	2.58671	2.84347	2.17140	17.11214	16.28415	15.49912	8.84517	6.74249	4.62786	13.03374	12.86486	12.05060	4.02100	3.51855	3.13061	22.54863	20.28185	17.94479
7200	2.58907	2.84427	2.16942	17.11469	16.28358	15.50172	8.83069	6.73697	4.62765	13.03508	12.86736	12.05135	4.02074	3.51646	3.13075	22.55030	20.27610	17.94045
7370	2.58556	2.84268	2.16853	17.10701	16.28177	15.49670	8.83081	6.73568	4.62729	13.03032	12.86655	12.05139	4.02052	3.51488	3.12971	22.54770	20.27453	17.93935
7530	2.58502	2.84108	2.16861	17.10487	16.27763	15.49536	8.82944	6.73041	4.62655	13.02640	12.86122	12.04697	4.02039	3.51651	3.12998	22.52455	20.26786	17.93542
7700	2.58751	2.84481	2.16853	17.10147	16.27523	15.49273	8.83337	6.73460	4.62749	13.02559	12.85840	12.04600	4.02049	3.51786	3.13069	22.52622	20.26187	17.93026
7860	2.58670	2.84124	2.17065	17.09549	16.27101	15.49122	8.83599	6.73986	4.62889	13.02464	12.85790	12.04430	4.02034	3.51798	3.13357	22.52659	20.25496	17.92861
8030	2.58784	2.84204	2.16827	17.09523	16.26584	15.48511	8.82739	6.73440	4.62274	13.01810	12.85177	12.04112	4.01792	3.51687	3.13030	22.52603	20.25334	17.92416
8190	2.58582	2.84110	2.16896	17.09137	16.26272	15.48027	8.82287	6.73827	4.62428	13.01618	12.84876	12.03750	4.01865	3.51765	3.13089	22.51971	20.24681	17.91864	34.34	6.1	0.00	-2.04	0.01734	0.01201	0.01520	0.01825	0.01889	0.01477	0.00547	0.01517	0.02009	0.01857	0.01286	0.01639	0.01708	0.01765	0.01379	0.00575	0.01613	0.02147
8360	2.58687	2.84692	2.16920	17.08777	16.26318	15.48045	8.83254	6.73954	4.62628	13.01607	12.85066	12.03728	4.01888	3.51791	3.13084	22.51602	20.24426	17.91198
8520	2.58869	2.84760	2.17217	17.08785	16.26117	15.47927	8.82969	6.74130	4.63071	13.01570	12.85177	12.03823	4.02274	3.51852	3.13070	22.52415	20.24666	17.91634
8690	2.58604	2.84446	2.17051	17.08712	16.26081	15.47553	8.83590	6.73779	4.62793	13.01382	12.84566	12.03487	4.01834	3.51738	3.13029	22.51620	20.23912	17.91036
8850	2.58517	2.83949	2.16862	17.08385	16.25533	15.47124	8.82821	6.73652	4.62494	13.01071	12.84511	12.03121	4.02004	3.51528	3.12674	22.50456	20.23790	17.90888
9020	2.58145	2.83291	2.16044	17.08233	16.25856	15.47039	8.76965	6.71403	4.61163	13.01032	12.84348	12.03180	4.00475	3.50517	3.11329	22.49774	20.23350	17.90579
9180	2.58031	2.83104	2.16348	17.08455	16.26031	15.47492	8.77848	6.72289	4.61522	13.01442	12.84998	12.03368	4.00815	3.50740	3.11705	22.51953	20.23775	17.90973
9350	2.57595	2.82753	2.15789	17.08209	16.25358	15.46707	8.77474	6.71443	4.61467	13.01011	12.84377	12.03382	4.00844	3.50633	3.11866	22.50530	20.23834	17.90891
9510	2.57754	2.83241	2.16031	17.08136	16.25631	15.46949	8.78335	6.72117	4.61747	13.01234	12.84292	12.03056	4.01205	3.50870	3.12232	22.49866	20.22939	17.90352
9680	2.58270	2.83729	2.16475	17.07677	16.24814	15.46659	8.80025	6.72485	4.61808	13.01041	12.84124	12.03226	4.01581	3.51082	3.12529	22.50198	20.23320	17.90765
9840	2.58270	2.83922	2.16643	17.07943	16.25146	15.47190	8.83479	6.74181	4.63294	13.01184	12.84168	12.03089	4.02835	3.52060	3.12996	22.50550	20.23221	17.90105	34.34	6.1	0.00	-2.04	0.01734	0.01202	0.01520	0.01825	0.01889	0.01477	0.00548	0.01517	0.02009	0.01857	0.01286	0.01639	0.01709	0.01766	0.01379	0.00574	0.01613	0.02147
10010	2.58487	2.83919	2.16635	17.07370	16.24215	15.46378	8.81442	6.72737	4.62270	13.00724	12.83582	12.02611	4.01733	3.51230	3.12547	22.49885	20.23177	17.89741
10170	2.58488	2.84061	2.16728	17.06748	16.23872	15.46100	8.81204	6.73565	4.62382	13.00492	12.83261	12.02383	4.02276	3.52205	3.13737	22.50716	20.22883	17.89886
10340	2.59387	2.85235	2.17754	17.07093	16.23998	15.46471	8.88240	6.75687	4.63804	13.00774	12.83564	12.02581	4.03268	3.52650	3.14079	22.51788	20.22839	17.89656
10500	2.59199	2.85386	2.17575	17.06561	16.23712	15.45720	8.86953	6.74874	4.63387	13.00464	12.83030	12.02342	4.02761	3.52330	3.13858	22.48982	20.22048	17.88969
10670	2.59339	2.85237	2.17659	17.06173	16.23470	15.45642	8.86108	6.74613	4.63272	13.00259	12.82886	12.02227	4.02304	3.52126	3.13479	22.48650	20.21955	17.88849
10830	2.59024	2.84685	2.17489	17.06167	16.23396	15.45431	8.87067	6.74990	4.63536	13.00184	12.82739	12.02071	4.02757	3.52422	3.13755	22.48668	20.21203	17.88267
11000	2.59183	2.85299	2.17515	17.05534	16.23040	15.45030	8.88394	6.74890	4.63426	12.99932	12.82605	12.01728	4.02686	3.52207	3.13554	22.48668	20.20788	17.88114
11160	2.59052	2.84904	2.17439	17.05382	16.22865	15.45226	8.87267	6.74811	4.63512	12.99853	12.82573	12.01894	4.02653	3.52293	3.13831	22.48042	20.20852	17.87904
11330	2.59120	2.85149	2.17482	17.04761	16.22595	15.44515	8.87170	6.74372	4.62899	12.99434	12.82145	12.01681	4.02651	3.52430	3.13868	22.48263	20.21125	17.88229
11490	2.59332	2.85073	2.17545	17.05053	16.22665	15.44678	8.86164	6.74792	4.63199	12.99819	12.82296	12.01671	4.02459	3.52109	3.13520	22.48015	20.20220	17.87521	34.34	6.1	0.00	-2.04	0.01734	0.01202	0.01520	0.01825	0.01889	0.01477	0.00548	0.01517	0.02009	0.01857	0.01286	0.01639	0.01709	0.01766	0.01379	0.00574	0.01613	0.02147
11660	2.59001	2.84923	2.17515	17.04371	16.22163	15.44236	8.85976	6.74399	4.63140	12.99595	12.82446	12.01426	4.02762	3.52062	3.13813	22.46856	20.19523	17.87030
11820	2.58929	2.84804	2.17391	17.04796	16.22125	15.44609	8.86553	6.74700	4.63478	12.99673	12.82646	12.01873	4.02801	3.52095	3.13798	22.47463	20.20147	17.87407
11990	2.58864	2.84556	2.17290	17.04563	16.22068	15.44239	8.86050	6.74659	4.63275	12.99354	12.81979	12.01309	4.02985	3.52471	3.14014	22.45955	20.19874	17.87243
12150	2.59081	2.84827	2.17490	17.04461	16.22083	15.44052	8.86296	6.74418	4.63390	12.99432	12.82089	12.01572	4.02357	3.52115	3.13433	22.46451	20.19533	17.86959
12320	2.58820	2.84596	2.17274	17.03887	16.21729	15.44097	8.84453	6.74452	4.63249	12.99262	12.82002	12.01420	4.02633	3.52149	3.13681	22.44669	20.19206	17.86806
12480	2.59068	2.84810	2.17170	17.03960	16.21777	15.43907	8.85200	6.74440	4.63101	12.99408	12.81974	12.01439	4.02697	3.52174	3.13280	22.44981	20.18705	17.86490
12650	2.58846	2.84557	2.17327	17.03643	16.21741	15.44001	8.84829	6.74613	4.63275	12.99289	12.81932	12.01392	4.02383	3.52121	3.13385	22.45238	20.18846	17.86122
12810	2.58907	2.84508	2.17373	17.03651	16.21546	15.43537	8.84772	6.73546	4.62912	12.99102	12.82013	12.01222	4.02479	3.51972	3.13249	22.45881	20.18977	17.86883
12980	2.58831	2.84477	2.17119	17.04374	16.22217	15.43938	8.84955	6.74240	4.63239	12.99326	12.82231	12.01624	4.01951	3.51647	3.13358	22.46120	20.18968	17.86673
13140	2.58780	2.84533	2.17385	17.04229	16.22336	15.44351	8.85723	6.74465	4.63357	12.99683	12.82178	12.01778	4.02407	3.52128	3.13217	22.44946	20.19292	17.86595	34.34	6.1	0.00	-2.04	0.01735	0.01202	0.01521	0.01825	0.01889	0.01477	0.00548	0.01518	0.02010	0.01857	0.01286	0.01638	0.01709	0.01766	0.01379	0.00574	0.01613	0.02147
