WetView ver 7.1	07-17-2019	11:05:57
AC9 Absorption and Attenuation Meter
00000311		; Serial number
2	; structure version number
Reserved
0.000000	0.000000		; Depth calibration
19200			; Baud rate
0.100000			; Path length (meters)
23			; number of temperature calibration bins
				12.61517	13.44096	14.46844	15.49904	16.50682	17.50108	18.49752	19.51783	20.49177	21.49009	22.48286	23.50673	24.54012	25.54812	26.49986	27.49321	28.50960	29.48671	30.47471	31.49432	32.50437	33.48679	34.49133	; temperature bins
a650	Blue	18.61587		0.01156	0.01096	0.01010	0.00930	0.00851	0.00774	0.00661	0.00573	0.00499	0.00402	0.00285	0.00203	0.00096	0.00000	-0.00110	-0.00152	-0.00210	-0.00247	-0.00259	-0.00317	-0.00346	-0.00380	-0.00403		; offset and temperature correction info
a676	Green	18.78942		0.00964	0.00899	0.00863	0.00813	0.00730	0.00639	0.00545	0.00448	0.00385	0.00301	0.00233	0.00165	0.00046	0.00000	-0.00106	-0.00167	-0.00251	-0.00280	-0.00316	-0.00329	-0.00377	-0.00392	-0.00441		; offset and temperature correction info
a715	Brown	18.59217		0.01171	0.01109	0.01043	0.00975	0.00878	0.00789	0.00685	0.00572	0.00469	0.00356	0.00255	0.00160	0.00061	0.00000	-0.00063	-0.00113	-0.00152	-0.00183	-0.00226	-0.00293	-0.00364	-0.00404	-0.00473		; offset and temperature correction info
c510	Red	18.18396		-0.00549	-0.00480	-0.00383	-0.00272	-0.00202	-0.00118	-0.00044	-0.00038	-0.00015	-0.00021	0.00013	0.00007	-0.00007	0.00000	-0.00007	-0.00065	-0.00045	-0.00018	0.00007	0.00039	-0.00001	-0.00002	-0.00045		; offset and temperature correction info
c532	Magenta	18.26528		-0.00721	-0.00645	-0.00581	-0.00518	-0.00465	-0.00345	-0.00281	-0.00270	-0.00182	-0.00141	-0.00108	-0.00072	-0.00022	0.00000	0.00044	0.00030	0.00031	-0.00006	-0.00052	-0.00089	-0.00142	-0.00149	-0.00154		; offset and temperature correction info
c555	Black	18.37125		-0.00430	-0.00419	-0.00381	-0.00319	-0.00286	-0.00254	-0.00205	-0.00196	-0.00138	-0.00137	-0.00067	-0.00051	-0.00030	0.00000	0.00067	0.00087	0.00057	0.00027	-0.00015	-0.00089	-0.00127	-0.00137	-0.00150		; offset and temperature correction info
a412	LtBlue	15.33566		-0.06011	-0.05567	-0.05012	-0.04441	-0.03922	-0.03412	-0.02941	-0.02503	-0.02049	-0.01588	-0.01121	-0.00784	-0.00311	0.00000	0.00273	0.00611	0.00757	0.00871	0.01066	0.01299	0.01539	0.01781	0.02175		; offset and temperature correction info
a440	LtGreen	16.05925		-0.01380	-0.01214	-0.01039	-0.00858	-0.00690	-0.00532	-0.00426	-0.00322	-0.00230	-0.00158	-0.00055	0.00006	0.00001	0.00000	0.00017	0.00016	-0.00094	-0.00222	-0.00363	-0.00486	-0.00567	-0.00651	-0.00782		; offset and temperature correction info
a488	Yellow	16.82827		0.00255	0.00293	0.00331	0.00354	0.00373	0.00378	0.00363	0.00350	0.00291	0.00225	0.00215	0.00142	0.00099	0.00000	-0.00092	-0.00169	-0.00295	-0.00396	-0.00479	-0.00542	-0.00582	-0.00604	-0.00663		; offset and temperature correction info
c650	Blue	18.49287		-0.00570	-0.00516	-0.00456	-0.00403	-0.00346	-0.00232	-0.00132	-0.00122	-0.00073	-0.00066	-0.00035	-0.00016	0.00003	0.00000	0.00044	0.00078	0.00108	0.00057	0.00040	-0.00042	-0.00033	-0.00029	-0.00034		; offset and temperature correction info
c676	Green	18.50570		0.00299	0.00293	0.00287	0.00293	0.00278	0.00294	0.00317	0.00251	0.00243	0.00215	0.00139	0.00123	0.00068	0.00000	-0.00041	-0.00106	-0.00205	-0.00268	-0.00325	-0.00413	-0.00495	-0.00610	-0.00674		; offset and temperature correction info
c715	Brown	17.88888		0.00826	0.00812	0.00773	0.00790	0.00766	0.00758	0.00753	0.00650	0.00571	0.00461	0.00359	0.00222	0.00101	0.00000	-0.00146	-0.00284	-0.00385	-0.00448	-0.00463	-0.00513	-0.00623	-0.00715	-0.00838		; offset and temperature correction info
a510	Red	17.18050		0.00353	0.00364	0.00354	0.00361	0.00381	0.00381	0.00356	0.00332	0.00277	0.00229	0.00176	0.00116	0.00036	0.00000	-0.00014	-0.00069	-0.00088	-0.00147	-0.00150	-0.00129	-0.00120	-0.00134	-0.00091		; offset and temperature correction info
a532	Magenta	17.40228		0.00550	0.00548	0.00526	0.00479	0.00464	0.00422	0.00393	0.00328	0.00253	0.00212	0.00136	0.00085	0.00039	0.00000	-0.00059	-0.00146	-0.00188	-0.00262	-0.00330	-0.00393	-0.00491	-0.00540	-0.00605		; offset and temperature correction info
a555	Black	17.72308		0.00849	0.00832	0.00800	0.00760	0.00724	0.00655	0.00580	0.00495	0.00435	0.00347	0.00252	0.00153	0.00049	0.00000	-0.00050	-0.00155	-0.00214	-0.00306	-0.00350	-0.00411	-0.00470	-0.00539	-0.00570		; offset and temperature correction info
c412	LtBlue	16.72802		-0.05949	-0.05458	-0.04744	-0.04134	-0.03547	-0.03064	-0.02511	-0.02047	-0.01574	-0.01163	-0.00761	-0.00442	-0.00204	0.00000	0.00100	0.00051	-0.00043	-0.00239	-0.00475	-0.00629	-0.00827	-0.00955	-0.01337		; offset and temperature correction info
c440	LtGreen	17.42637		-0.02723	-0.02503	-0.02216	-0.01930	-0.01691	-0.01394	-0.01125	-0.00926	-0.00732	-0.00582	-0.00401	-0.00226	-0.00093	0.00000	0.00082	0.00123	0.00133	0.00097	0.00038	-0.00003	-0.00022	-0.00023	-0.00125		; offset and temperature correction info
c488	Yellow	18.03666		-0.00640	-0.00554	-0.00465	-0.00357	-0.00276	-0.00154	-0.00067	-0.00031	-0.00014	-0.00012	0.00046	0.00032	0.00020	0.00000	0.00001	-0.00024	-0.00060	-0.00084	-0.00126	-0.00180	-0.00276	-0.00304	-0.00427		; offset and temperature correction info
0.003500	0.004000	0.015000	0.020000	0.015000	0.020000	2500.000000	2000.000000	1000.000000	; maxANoise	maxCNoise	maxADifference	maxCDifference	minACounts	minCCounts	minRCounts	maxTempSdev	maxDepthSdev
0			; auxilliary capabilities
1			; acquisition binsize
0	2.32544	2.47971	2.06230	12.32523	11.92756	11.55669	7.14658	5.33388	3.77323	10.47519	10.30067	9.99469	3.33410	2.96766	2.69317	16.12346	14.31898	12.77517	34.99	6.8	0.00	-2.04	0.01729	0.01198	0.01516	0.01826	0.01889	0.01477	0.00546	0.01512	0.02002	0.01857	0.01287	0.01639	0.01703	0.01760	0.01375	0.00574	0.01613	0.02147
160	2.28344	2.43034	2.01100	12.34540	11.94948	11.57614	7.04402	5.23448	3.68325	10.49159	10.32550	10.01894	3.24431	2.89409	2.62344	16.15660	14.35226	12.80323
330	2.24176	2.40383	1.99204	12.36160	11.95663	11.57571	7.01043	5.25057	3.71844	10.49175	10.31500	10.00481	3.30571	2.97846	2.71625	16.12239	14.31665	12.76973
480	2.33636	2.49438	2.07276	12.32941	11.92962	11.55865	7.15180	5.35233	3.78551	10.47747	10.30397	10.00005	3.34293	2.97459	2.69799	16.12542	14.31587	12.77724
630	2.28835	2.43226	2.00923	12.35015	11.95040	11.57725	7.04182	5.23934	3.68804	10.49299	10.32578	10.01928	3.25309	2.90240	2.62992	16.14868	14.34903	12.80584
800	2.24434	2.40427	1.98965	12.36678	11.96200	11.58351	7.02163	5.24266	3.70561	10.49671	10.32262	10.01806	3.29245	2.95907	2.69478	16.13968	14.33293	12.78711
950	2.31464	2.47422	2.06121	12.34178	11.94079	11.56594	7.14016	5.33912	3.78107	10.48331	10.31257	10.01019	3.34448	2.98331	2.70854	16.12708	14.32524	12.78416
1110	2.29731	2.44794	2.02756	12.35139	11.95468	11.58199	7.05803	5.26119	3.70205	10.49435	10.32970	10.02617	3.26466	2.90612	2.63676	16.14760	14.35356	12.81448
1270	2.24537	2.39766	1.98314	12.38078	11.97901	11.60057	6.99615	5.20610	3.66340	10.50959	10.34474	10.03835	3.23441	2.89289	2.62911	16.16611	14.36242	12.81445
1440	2.24560	2.41333	2.00187	12.37568	11.97316	11.59131	7.04068	5.26479	3.72402	10.50142	10.32836	10.02559	3.30564	2.96736	2.70146	16.14535	14.34780	12.80357
1600	2.30238	2.46124	2.04290	12.36524	11.96691	11.59071	7.11158	5.31074	3.75561	10.50294	10.33170	10.02950	3.32414	2.97073	2.69734	16.14683	14.34268	12.80295	34.99	6.3	0.00	-2.04	0.01728	0.01197	0.01515	0.01827	0.01890	0.01477	0.00545	0.01511	0.02001	0.01858	0.01287	0.01640	0.01702	0.01759	0.01374	0.00574	0.01614	0.02148
1750	2.30008	2.45413	2.03745	12.36326	11.96302	11.58702	7.10094	5.30175	3.74798	10.49910	10.32604	10.02659	3.31717	2.96414	2.69393	16.13833	14.33590	12.79510
1910	2.30019	2.45414	2.03878	12.35378	11.95578	11.58027	7.10320	5.30656	3.75431	10.49213	10.31886	10.02111	3.32353	2.96971	2.69799	16.13481	14.32780	12.79006
2070	2.30165	2.45424	2.03879	12.35473	11.95382	11.58135	7.10316	5.30030	3.74829	10.49270	10.32096	10.02508	3.31395	2.96340	2.69248	16.13442	14.32745	12.79147
2230	2.29902	2.45545	2.03849	12.35436	11.95707	11.58485	7.10243	5.30523	3.75167	10.49453	10.32120	10.02298	3.31598	2.96954	2.69669	16.13676	14.33156	12.79834
2390	2.30048	2.45869	2.03935	12.36092	11.96513	11.58973	7.10166	5.30358	3.75279	10.49724	10.32422	10.02956	3.31720	2.96953	2.69591	16.14331	14.33574	12.79839
2560	2.30008	2.45712	2.04130	12.36366	11.96706	11.59177	7.10806	5.30538	3.75492	10.49898	10.32637	10.03069	3.32332	2.97653	2.70269	16.15514	14.34645	12.81246
2720	2.30621	2.46153	2.04771	12.37615	11.97873	11.60370	7.11803	5.31440	3.76165	10.50766	10.33475	10.03778	3.32332	2.97414	2.70465	16.15730	14.34876	12.81177
2890	2.30459	2.46320	2.04549	12.37721	11.98110	11.60530	7.09993	5.31228	3.75957	10.50796	10.33656	10.04023	3.32397	2.97337	2.70156	16.15818	14.35215	12.81402
3050	2.30509	2.46086	2.04402	12.37730	11.98205	11.60614	7.10869	5.31396	3.75734	10.50828	10.33587	10.04044	3.32091	2.97459	2.70090	16.16004	14.35229	12.81632
3210	2.30014	2.45748	2.04293	12.38613	11.99110	11.61702	7.10464	5.30784	3.75727	10.51544	10.34094	10.04598	3.31858	2.97040	2.69619	16.16707	14.36310	12.82447	34.99	6.2	0.00	-2.04	0.01727	0.01196	0.01514	0.01827	0.01890	0.01478	0.00545	0.01510	0.01999	0.01858	0.01287	0.01640	0.01701	0.01758	0.01373	0.00575	0.01614	0.02149
3380	2.29897	2.45809	2.03740	12.38935	11.99164	11.61679	7.10021	5.30275	3.75178	10.51404	10.34233	10.04402	3.31402	2.97068	2.69860	16.16629	14.36538	12.82822
3540	2.30241	2.45778	2.04015	12.39138	11.99568	11.62039	7.10839	5.30538	3.75597	10.51587	10.34293	10.04561	3.31463	2.96825	2.69305	16.16952	14.36364	12.82556
3710	2.30104	2.45950	2.04257	12.39410	11.99893	11.62425	7.09867	5.30670	3.75446	10.52087	10.34790	10.04957	3.31450	2.97070	2.69818	16.17442	14.37036	12.83343
3870	2.30201	2.45599	2.04022	12.39459	11.99890	11.62533	7.10468	5.30337	3.75132	10.52037	10.34855	10.04996	3.31538	2.97142	2.69803	16.18315	14.37368	12.83770
4040	2.30222	2.45901	2.04033	12.39997	12.00451	11.63236	7.09919	5.30815	3.75368	10.52617	10.35220	10.05380	3.31469	2.96767	2.69535	16.18806	14.37408	12.83717
4200	2.30331	2.45907	2.04413	12.40449	12.00977	11.63913	7.10916	5.30777	3.75706	10.53010	10.35601	10.05775	3.31771	2.97177	2.69938	16.18845	14.38091	12.84085
4370	2.30101	2.45877	2.04017	12.40458	12.00957	11.63666	7.10459	5.30575	3.75487	10.52878	10.35400	10.05613	3.31980	2.97290	2.69981	16.18845	14.38244	12.84477
4530	2.30291	2.45945	2.04010	12.40648	12.01331	11.64364	7.11760	5.31133	3.75510	10.53321	10.35891	10.05870	3.31434	2.96790	2.69648	16.19729	14.38356	12.84317
4690	2.30230	2.46025	2.04321	12.41013	12.01743	11.64740	7.11075	5.31108	3.75947	10.53790	10.36166	10.06263	3.31740	2.97012	2.69776	16.20102	14.38786	12.84934
4860	2.29738	2.45484	2.03535	12.41401	12.01724	11.64809	7.09632	5.30053	3.74917	10.53653	10.35996	10.06169	3.31071	2.96513	2.69153	16.19218	14.39117	12.84878	34.99	6.1	0.00	-2.04	0.01727	0.01196	0.01514	0.01828	0.01890	0.01478	0.00544	0.01509	0.01998	0.01858	0.01287	0.01640	0.01700	0.01757	0.01373	0.00575	0.01615	0.02149
5020	2.29417	2.45079	2.03505	12.41185	12.01712	11.64655	7.09011	5.29768	3.74575	10.53827	10.36133	10.06254	3.31017	2.96071	2.69249	16.19571	14.38864	12.84640
5190	2.29433	2.45399	2.03731	12.41159	12.02183	11.65260	7.10619	5.30290	3.75259	10.54364	10.36724	10.06700	3.31290	2.96700	2.69496	16.19836	14.39638	12.85350
5350	2.29869	2.45533	2.03914	12.41535	12.02161	11.65200	7.09728	5.29940	3.74953	10.54513	10.36680	10.06664	3.31031	2.96528	2.69206	16.19817	14.39774	12.85604
5520	2.29907	2.45477	2.03622	12.42040	12.02642	11.65635	7.10330	5.30453	3.74940	10.54813	10.37111	10.06827	3.30984	2.96466	2.69079	16.19640	14.39545	12.85390
5680	2.29676	2.45459	2.03915	12.42029	12.02811	11.65841	7.10272	5.30303	3.75096	10.55117	10.37300	10.06921	3.31155	2.96375	2.69504	16.20937	14.39935	12.85905
5840	2.29817	2.45357	2.03642	12.42282	12.02845	11.66086	7.09723	5.30179	3.75018	10.55252	10.37486	10.07024	3.31378	2.96604	2.69330	16.20436	14.40404	12.86209
6010	2.30003	2.45631	2.04029	12.42687	12.03082	11.66437	7.08996	5.30505	3.75385	10.55764	10.37975	10.07436	3.31012	2.96621	2.69329	16.20760	14.40456	12.86477
6180	2.29978	2.45786	2.04026	12.42981	12.03509	11.66800	7.10388	5.30654	3.75467	10.56250	10.38468	10.07877	3.31506	2.96716	2.69388	16.21871	14.41261	12.86835
6340	2.29853	2.45574	2.03820	12.43128	12.03596	11.66938	7.10017	5.30443	3.75084	10.56404	10.38472	10.08068	3.31271	2.96729	2.69458	16.20937	14.41182	12.87265
6510	2.29790	2.45198	2.03620	12.43589	12.03911	11.67212	7.09080	5.30075	3.74765	10.56689	10.38870	10.08211	3.31141	2.96657	2.69619	16.21714	14.41843	12.87668	34.99	6.1	0.00	-2.04	0.01726	0.01196	0.01513	0.01828	0.01891	0.01478	0.00544	0.01508	0.01998	0.01858	0.01288	0.01640	0.01699	0.01757	0.01373	0.00575	0.01615	0.02149
6670	2.29701	2.45274	2.03773	12.43657	12.04006	11.67359	7.09268	5.30056	3.74801	10.57050	10.39094	10.08491	3.30853	2.96391	2.69257	16.22127	14.41706	12.87547
6840	2.29784	2.45470	2.03955	12.43963	12.04419	11.67664	7.09624	5.30494	3.75404	10.57631	10.39715	10.08737	3.31329	2.96556	2.69509	16.23092	14.42212	12.87984
7000	2.29631	2.45412	2.03718	12.44255	12.04389	11.67755	7.10255	5.30249	3.74862	10.57500	10.39698	10.08753	3.30918	2.96229	2.69345	16.22964	14.42201	12.87805
7170	2.29711	2.45130	2.03386	12.43894	12.04329	11.67705	7.08743	5.29623	3.74571	10.57742	10.39926	10.08912	3.31121	2.96644	2.69336	16.23043	14.42720	12.88321
7330	2.29728	2.45580	2.03728	12.44511	12.04803	11.68158	7.09590	5.29718	3.74789	10.58277	10.40488	10.09459	3.30922	2.96423	2.69361	16.23270	14.42723	12.88258
7500	2.29851	2.45661	2.03934	12.44700	12.05216	11.68354	7.10593	5.30297	3.75061	10.58789	10.40731	10.09801	3.31356	2.96450	2.69758	16.23605	14.42884	12.88697
7660	2.29812	2.45515	2.03688	12.44768	12.05123	11.68352	7.09499	5.30078	3.74902	10.58767	10.40813	10.09956	3.31187	2.96570	2.69212	16.23112	14.42816	12.88805
7830	2.29458	2.45538	2.03779	12.44929	12.05230	11.68620	7.10038	5.30212	3.75089	10.59106	10.41258	10.10117	3.31080	2.96327	2.69551	16.23841	14.43292	12.89182
7990	2.29665	2.45463	2.03581	12.45262	12.05352	11.68647	7.09778	5.29982	3.74840	10.59053	10.41377	10.10297	3.31174	2.96662	2.69416	16.24226	14.43442	12.89340
8160	2.29656	2.45314	2.03552	12.45543	12.05611	11.68665	7.09283	5.29895	3.74665	10.59434	10.41682	10.10556	3.30697	2.96275	2.69223	16.23808	14.43517	12.89337	35.04	5.9	0.00	-2.04	0.01726	0.01196	0.01513	0.01828	0.01891	0.01478	0.00544	0.01508	0.01997	0.01859	0.01288	0.01640	0.01699	0.01756	0.01372	0.00575	0.01615	0.02150
8320	2.29390	2.45480	2.03661	12.45554	12.05992	11.69279	7.10305	5.30098	3.75110	10.60100	10.42327	10.10936	3.31275	2.96436	2.69331	16.26167	14.44168	12.90153
8490	2.29538	2.45028	2.03494	12.46021	12.06031	11.69190	7.09837	5.29667	3.74760	10.59987	10.42382	10.10969	3.30731	2.96354	2.69216	16.24854	14.44048	12.90116
8650	2.29470	2.45319	2.03554	12.46124	12.06160	11.69529	7.09052	5.29748	3.74553	10.60224	10.42467	10.11219	3.30885	2.96327	2.68986	16.25189	14.44048	12.90166
8820	2.29531	2.45260	2.03470	12.46251	12.06297	11.69670	7.09765	5.29920	3.74926	10.60609	10.42908	10.11615	3.30867	2.96150	2.68958	16.24311	14.44043	12.90244
8980	2.29485	2.45233	2.03693	12.46571	12.06614	11.69918	7.09090	5.29975	3.74854	10.60963	10.43230	10.11847	3.31044	2.96534	2.69377	16.25782	14.44533	12.90678
9150	2.29519	2.45091	2.03333	12.46604	12.06507	11.69841	7.08527	5.29508	3.74682	10.60809	10.43152	10.12052	3.31008	2.96612	2.69498	16.25752	14.44897	12.91301
9310	2.29858	2.45436	2.03733	12.47030	12.07002	11.70255	7.09230	5.30072	3.74831	10.61380	10.43632	10.12423	3.31066	2.96092	2.69078	16.25416	14.44587	12.91032
9480	2.29562	2.45224	2.03735	12.46897	12.06987	11.69984	7.10131	5.29882	3.74937	10.61382	10.43915	10.12443	3.31033	2.96093	2.68805	16.24518	14.44563	12.90949
9640	2.29407	2.45265	2.03779	12.47184	12.07152	11.70431	7.10642	5.30089	3.74846	10.61640	10.44089	10.12707	3.30955	2.96374	2.69080	16.25179	14.45143	12.91231
9810	2.29245	2.45105	2.03198	12.47166	12.06836	11.70526	7.07756	5.29077	3.74317	10.61451	10.43940	10.12650	3.30981	2.96453	2.69158	16.26248	14.45334	12.91639	34.99	6.1	0.00	-2.04	0.01726	0.01195	0.01513	0.01828	0.01891	0.01478	0.00544	0.01508	0.01997	0.01859	0.01288	0.01640	0.01699	0.01756	0.01372	0.00575	0.01615	0.02150
9970	2.29512	2.45389	2.03550	12.47475	12.07510	11.70683	7.08704	5.29728	3.74442	10.61952	10.44324	10.13082	3.30758	2.96257	2.68879	16.25546	14.45257	12.91534
10140	2.29565	2.45329	2.03471	12.47680	12.07683	11.70826	7.08083	5.29548	3.74521	10.62340	10.44665	10.13606	3.30914	2.96448	2.69094	16.27068	14.46014	12.92083
10300	2.29696	2.45411	2.03642	12.48004	12.07856	11.71176	7.09031	5.29798	3.74581	10.62717	10.45175	10.13853	3.30969	2.96211	2.69111	16.26722	14.45998	12.91905
10470	2.29515	2.45487	2.03785	12.48030	12.08102	11.71116	7.09571	5.29395	3.74486	10.62664	10.45273	10.13937	3.30696	2.96214	2.68802	16.26040	14.46030	12.92284
10630	2.29627	2.45175	2.03305	12.48148	12.07853	11.70791	7.08973	5.29190	3.74327	10.62501	10.45140	10.13848	3.30758	2.96090	2.69099	16.26910	14.46006	12.92435
10800	2.29569	2.45113	2.03658	12.48426	12.08262	11.71244	7.09460	5.29671	3.74559	10.62784	10.45498	10.14298	3.30987	2.96030	2.68881	16.26831	14.46157	12.92345
10960	2.29327	2.45149	2.03396	12.48314	12.08474	11.71435	7.08362	5.29853	3.74396	10.62866	10.45895	10.14497	3.30591	2.96168	2.68627	16.26712	14.46124	12.92530
11120	2.29164	2.44784	2.03108	12.48591	12.08262	11.71188	7.09113	5.29177	3.74200	10.62821	10.45678	10.14539	3.30523	2.96155	2.68976	16.27157	14.46486	12.92563
11290	2.29255	2.44956	2.03240	12.48651	12.08707	11.71375	7.08752	5.29204	3.74220	10.63119	10.46061	10.14850	3.30684	2.96254	2.68896	16.26613	14.46220	12.92752
11450	2.29156	2.44730	2.02998	12.48915	12.08560	11.71349	7.07888	5.29082	3.74124	10.63326	10.46122	10.14972	3.30697	2.96313	2.68966	16.27605	14.46967	12.93379	35.04	6.1	0.00	-2.04	0.01726	0.01195	0.01513	0.01828	0.01891	0.01478	0.00544	0.01508	0.01997	0.01859	0.01288	0.01640	0.01698	0.01756	0.01372	0.00575	0.01615	0.02150
11620	2.29585	2.45148	2.03435	12.49306	12.09275	11.71897	7.09053	5.29568	3.74317	10.63680	10.46546	10.15521	3.30368	2.96115	2.68998	16.27497	14.46940	12.93053
11780	2.29145	2.44898	2.03304	12.49214	12.09151	11.71928	7.08384	5.29468	3.74329	10.63778	10.46774	10.15695	3.30474	2.95994	2.68660	16.27536	14.46641	12.93210
11950	2.29312	2.44969	2.03562	12.49430	12.09474	11.72384	7.08784	5.29420	3.74400	10.64171	10.46904	10.16176	3.30592	2.96018	2.68752	16.27160	14.46959	12.93280
12110	2.28962	2.44890	2.03099	12.49358	12.09228	11.72301	7.08302	5.28934	3.74284	10.64042	10.47029	10.16091	3.30617	2.96171	2.69047	16.27962	14.47470	12.93770
12280	2.29331	2.44945	2.03292	12.49869	12.09913	11.72782	7.08158	5.29338	3.74326	10.64472	10.47393	10.16626	3.30390	2.95917	2.68288	16.27873	14.47209	12.93527
12440	2.29199	2.44976	2.03370	12.49830	12.09731	11.72807	7.08346	5.29148	3.74143	10.64556	10.47414	10.16711	3.30180	2.95508	2.68598	16.27902	14.47396	12.93782
12610	2.29096	2.44790	2.03423	12.50153	12.10064	11.73286	7.08553	5.29546	3.74468	10.64818	10.47887	10.17144	3.30376	2.95846	2.68486	16.28437	14.47722	12.94188
12770	2.28880	2.44736	2.03044	12.50177	12.10195	11.73056	7.08427	5.29245	3.74234	10.64765	10.47681	10.17033	3.30287	2.95702	2.68589	16.28625	14.47742	12.93978
12940	2.29045	2.44608	2.03231	12.50231	12.10253	11.73193	7.07677	5.29184	3.74377	10.64815	10.47913	10.17305	3.30360	2.95904	2.68902	16.28655	14.47912	12.94190
13110	2.29186	2.45125	2.03293	12.50514	12.10581	11.73587	7.08027	5.28904	3.74163	10.65256	10.48122	10.17914	3.30468	2.96195	2.68966	16.29260	14.48761	12.94815	34.99	6.1	0.00	-2.04	0.01725	0.01195	0.01513	0.01828	0.01891	0.01478	0.00544	0.01507	0.01996	0.01859	0.01288	0.01640	0.01698	0.01755	0.01372	0.00575	0.01615	0.02150
