WetView ver 7.1	07-17-2019	12:11:19
AC9 Absorption and Attenuation Meter
00000311		; Serial number
2	; structure version number
Reserved
0.000000	0.000000		; Depth calibration
19200			; Baud rate
0.100000			; Path length (meters)
23			; number of temperature calibration bins
				12.61517	13.44096	14.46844	15.49904	16.50682	17.50108	18.49752	19.51783	20.49177	21.49009	22.48286	23.50673	24.54012	25.54812	26.49986	27.49321	28.50960	29.48671	30.47471	31.49432	32.50437	33.48679	34.49133	; temperature bins
a650	Blue	18.61587		0.01156	0.01096	0.01010	0.00930	0.00851	0.00774	0.00661	0.00573	0.00499	0.00402	0.00285	0.00203	0.00096	0.00000	-0.00110	-0.00152	-0.00210	-0.00247	-0.00259	-0.00317	-0.00346	-0.00380	-0.00403		; offset and temperature correction info
a676	Green	18.78942		0.00964	0.00899	0.00863	0.00813	0.00730	0.00639	0.00545	0.00448	0.00385	0.00301	0.00233	0.00165	0.00046	0.00000	-0.00106	-0.00167	-0.00251	-0.00280	-0.00316	-0.00329	-0.00377	-0.00392	-0.00441		; offset and temperature correction info
a715	Brown	18.59217		0.01171	0.01109	0.01043	0.00975	0.00878	0.00789	0.00685	0.00572	0.00469	0.00356	0.00255	0.00160	0.00061	0.00000	-0.00063	-0.00113	-0.00152	-0.00183	-0.00226	-0.00293	-0.00364	-0.00404	-0.00473		; offset and temperature correction info
c510	Red	18.18396		-0.00549	-0.00480	-0.00383	-0.00272	-0.00202	-0.00118	-0.00044	-0.00038	-0.00015	-0.00021	0.00013	0.00007	-0.00007	0.00000	-0.00007	-0.00065	-0.00045	-0.00018	0.00007	0.00039	-0.00001	-0.00002	-0.00045		; offset and temperature correction info
c532	Magenta	18.26528		-0.00721	-0.00645	-0.00581	-0.00518	-0.00465	-0.00345	-0.00281	-0.00270	-0.00182	-0.00141	-0.00108	-0.00072	-0.00022	0.00000	0.00044	0.00030	0.00031	-0.00006	-0.00052	-0.00089	-0.00142	-0.00149	-0.00154		; offset and temperature correction info
c555	Black	18.37125		-0.00430	-0.00419	-0.00381	-0.00319	-0.00286	-0.00254	-0.00205	-0.00196	-0.00138	-0.00137	-0.00067	-0.00051	-0.00030	0.00000	0.00067	0.00087	0.00057	0.00027	-0.00015	-0.00089	-0.00127	-0.00137	-0.00150		; offset and temperature correction info
a412	LtBlue	15.33566		-0.06011	-0.05567	-0.05012	-0.04441	-0.03922	-0.03412	-0.02941	-0.02503	-0.02049	-0.01588	-0.01121	-0.00784	-0.00311	0.00000	0.00273	0.00611	0.00757	0.00871	0.01066	0.01299	0.01539	0.01781	0.02175		; offset and temperature correction info
a440	LtGreen	16.05925		-0.01380	-0.01214	-0.01039	-0.00858	-0.00690	-0.00532	-0.00426	-0.00322	-0.00230	-0.00158	-0.00055	0.00006	0.00001	0.00000	0.00017	0.00016	-0.00094	-0.00222	-0.00363	-0.00486	-0.00567	-0.00651	-0.00782		; offset and temperature correction info
a488	Yellow	16.82827		0.00255	0.00293	0.00331	0.00354	0.00373	0.00378	0.00363	0.00350	0.00291	0.00225	0.00215	0.00142	0.00099	0.00000	-0.00092	-0.00169	-0.00295	-0.00396	-0.00479	-0.00542	-0.00582	-0.00604	-0.00663		; offset and temperature correction info
c650	Blue	18.49287		-0.00570	-0.00516	-0.00456	-0.00403	-0.00346	-0.00232	-0.00132	-0.00122	-0.00073	-0.00066	-0.00035	-0.00016	0.00003	0.00000	0.00044	0.00078	0.00108	0.00057	0.00040	-0.00042	-0.00033	-0.00029	-0.00034		; offset and temperature correction info
c676	Green	18.50570		0.00299	0.00293	0.00287	0.00293	0.00278	0.00294	0.00317	0.00251	0.00243	0.00215	0.00139	0.00123	0.00068	0.00000	-0.00041	-0.00106	-0.00205	-0.00268	-0.00325	-0.00413	-0.00495	-0.00610	-0.00674		; offset and temperature correction info
c715	Brown	17.88888		0.00826	0.00812	0.00773	0.00790	0.00766	0.00758	0.00753	0.00650	0.00571	0.00461	0.00359	0.00222	0.00101	0.00000	-0.00146	-0.00284	-0.00385	-0.00448	-0.00463	-0.00513	-0.00623	-0.00715	-0.00838		; offset and temperature correction info
a510	Red	17.18050		0.00353	0.00364	0.00354	0.00361	0.00381	0.00381	0.00356	0.00332	0.00277	0.00229	0.00176	0.00116	0.00036	0.00000	-0.00014	-0.00069	-0.00088	-0.00147	-0.00150	-0.00129	-0.00120	-0.00134	-0.00091		; offset and temperature correction info
a532	Magenta	17.40228		0.00550	0.00548	0.00526	0.00479	0.00464	0.00422	0.00393	0.00328	0.00253	0.00212	0.00136	0.00085	0.00039	0.00000	-0.00059	-0.00146	-0.00188	-0.00262	-0.00330	-0.00393	-0.00491	-0.00540	-0.00605		; offset and temperature correction info
a555	Black	17.72308		0.00849	0.00832	0.00800	0.00760	0.00724	0.00655	0.00580	0.00495	0.00435	0.00347	0.00252	0.00153	0.00049	0.00000	-0.00050	-0.00155	-0.00214	-0.00306	-0.00350	-0.00411	-0.00470	-0.00539	-0.00570		; offset and temperature correction info
c412	LtBlue	16.72802		-0.05949	-0.05458	-0.04744	-0.04134	-0.03547	-0.03064	-0.02511	-0.02047	-0.01574	-0.01163	-0.00761	-0.00442	-0.00204	0.00000	0.00100	0.00051	-0.00043	-0.00239	-0.00475	-0.00629	-0.00827	-0.00955	-0.01337		; offset and temperature correction info
c440	LtGreen	17.42637		-0.02723	-0.02503	-0.02216	-0.01930	-0.01691	-0.01394	-0.01125	-0.00926	-0.00732	-0.00582	-0.00401	-0.00226	-0.00093	0.00000	0.00082	0.00123	0.00133	0.00097	0.00038	-0.00003	-0.00022	-0.00023	-0.00125		; offset and temperature correction info
c488	Yellow	18.03666		-0.00640	-0.00554	-0.00465	-0.00357	-0.00276	-0.00154	-0.00067	-0.00031	-0.00014	-0.00012	0.00046	0.00032	0.00020	0.00000	0.00001	-0.00024	-0.00060	-0.00084	-0.00126	-0.00180	-0.00276	-0.00304	-0.00427		; offset and temperature correction info
0.003500	0.004000	0.015000	0.020000	0.015000	0.020000	2500.000000	2000.000000	1000.000000	; maxANoise	maxCNoise	maxADifference	maxCDifference	minACounts	minCCounts	minRCounts	maxTempSdev	maxDepthSdev
0			; auxilliary capabilities
1			; acquisition binsize
0	3.68118	3.70589	3.32435	14.41887	13.76277	12.90649	13.92103	9.88946	6.66025	11.42601	10.95332	10.54509	5.72806	5.01710	4.54785	23.49657	18.92839	15.33883	36.92	6.1	0.00	-2.04	0.01730	0.01200	0.01518	0.01815	0.01877	0.01468	0.00548	0.01519	0.02007	0.01846	0.01281	0.01633	0.01708	0.01764	0.01378	0.00569	0.01602	0.02131
170	3.69114	3.71640	3.32204	14.41812	13.76396	12.90740	13.90834	9.87093	6.63283	11.42516	10.95254	10.54050	5.72358	5.01951	4.55844	23.47132	18.92506	15.33735
330	3.70658	3.72977	3.33278	14.42351	13.76653	12.90990	13.90144	9.87080	6.63336	11.42800	10.95437	10.54412	5.71661	5.01367	4.55143	23.48239	18.93367	15.34213
500	3.70400	3.72899	3.33738	14.43116	13.77279	12.91641	13.92170	9.88035	6.64640	11.43290	10.96222	10.55253	5.71889	5.01346	4.54550	23.50643	18.93734	15.35068
660	3.69197	3.71888	3.32795	14.43531	13.77758	12.92050	13.93820	9.88202	6.65770	11.43450	10.96292	10.55407	5.73409	5.02113	4.55110	23.50294	18.93687	15.35053
830	3.68159	3.70162	3.30900	14.43518	13.77733	12.92048	13.92236	9.88570	6.65940	11.43788	10.96716	10.55822	5.74677	5.03277	4.55883	23.49985	18.94764	15.35482
990	3.69282	3.70888	3.31140	14.43739	13.78115	12.92255	13.89822	9.87213	6.64532	11.43909	10.97025	10.55861	5.73279	5.02951	4.56276	23.50952	18.94574	15.35846
1160	3.71039	3.72997	3.33229	14.43911	13.78021	12.92514	13.90588	9.86364	6.63150	11.44630	10.97397	10.56427	5.71739	5.01546	4.55393	23.50726	18.94548	15.35435
1320	3.71284	3.73725	3.34604	14.43777	13.78815	12.93021	13.92066	9.87667	6.63259	11.44751	10.97568	10.56477	5.70876	5.00627	4.54770	23.50150	18.94548	15.35794
1490	3.71218	3.73952	3.34622	14.44331	13.78494	12.92392	13.91706	9.87234	6.63601	11.43955	10.97130	10.56328	5.71139	5.00686	4.54005	23.50685	18.94561	15.36167
1650	3.70253	3.73206	3.34712	14.44367	13.78679	12.92980	13.92046	9.89420	6.65306	11.44517	10.97773	10.56998	5.71060	4.99858	4.52846	23.50139	18.95040	15.36093	36.92	5.9	0.00	-2.04	0.01730	0.01200	0.01519	0.01814	0.01876	0.01468	0.00548	0.01519	0.02007	0.01846	0.01281	0.01633	0.01708	0.01764	0.01378	0.00569	0.01602	0.02131
1810	3.69235	3.72317	3.33963	14.44952	13.79414	12.93444	13.93392	9.89934	6.66302	11.44978	10.98347	10.57500	5.72809	5.01390	4.53884	23.50529	18.95227	15.36279
1980	3.68777	3.71348	3.32520	14.44744	13.78973	12.93347	13.91127	9.89272	6.65921	11.44611	10.98047	10.57252	5.73586	5.02039	4.54727	23.52877	18.95530	15.36157
2140	3.68458	3.70395	3.32135	14.44598	13.78977	12.93156	13.92406	9.89231	6.66277	11.44425	10.98080	10.57459	5.73660	5.02230	4.55169	23.51085	18.94347	15.35710
2300	3.68818	3.70785	3.31725	14.44243	13.78313	12.92499	13.89708	9.87033	6.64101	11.44133	10.97797	10.57189	5.72910	5.02559	4.55905	23.50303	18.94334	15.35699
2470	3.70816	3.73068	3.33547	14.44376	13.78967	12.93067	13.90768	9.87901	6.63835	11.44771	10.98167	10.57635	5.71660	5.00587	4.54229	23.50509	18.94278	15.35887
2630	3.70058	3.72870	3.34706	14.44742	13.79202	12.93415	13.93516	9.90101	6.66091	11.45192	10.98691	10.58367	5.71499	4.99529	4.51945	23.50632	18.94798	15.35804
2800	3.68468	3.72157	3.33822	14.44805	13.79355	12.93814	13.94655	9.90370	6.66800	11.45713	10.99173	10.58564	5.73541	5.01898	4.54793	23.51106	18.95261	15.36653
2960	3.67975	3.70164	3.31239	14.45948	13.80625	12.94611	13.91137	9.89871	6.67020	11.46000	10.99757	10.59307	5.74670	5.03187	4.55881	23.52218	18.96380	15.37672
3130	3.68729	3.70776	3.32090	14.46127	13.80521	12.94687	13.92074	9.88984	6.65916	11.45764	10.99961	10.59613	5.73483	5.02288	4.55415	23.52032	18.95643	15.37576
3290	3.69538	3.71770	3.32744	14.46312	13.80390	12.94903	13.90452	9.88713	6.65839	11.46153	11.00038	10.59647	5.73522	5.02291	4.55481	23.52196	18.95553	15.37342	36.92	6.0	0.00	-2.04	0.01730	0.01200	0.01519	0.01814	0.01876	0.01468	0.00548	0.01519	0.02007	0.01846	0.01281	0.01633	0.01709	0.01764	0.01379	0.00569	0.01602	0.02131
3450	3.69430	3.71454	3.32002	14.46318	13.80817	12.95245	13.92763	9.88246	6.65822	11.45786	10.99638	10.59515	5.73913	5.02629	4.55600	23.51125	18.95770	15.37344
3620	3.68978	3.71183	3.32007	14.45927	13.80245	12.94593	13.93560	9.87929	6.64975	11.45714	10.99774	10.59506	5.73759	5.03260	4.56517	23.51599	18.96060	15.37704
3780	3.70930	3.72731	3.33146	14.46314	13.80994	12.95540	13.91957	9.87253	6.63857	11.46259	11.00053	10.59913	5.72444	5.02382	4.56174	23.50590	18.95540	15.37168
3940	3.71309	3.74259	3.35048	14.46167	13.80764	12.94896	13.93787	9.88404	6.64093	11.46270	11.00170	10.60076	5.70947	5.00061	4.53883	23.50549	18.95696	15.37213
4110	3.71439	3.75121	3.36728	14.46094	13.80636	12.95148	13.95621	9.88470	6.62950	11.46614	11.00708	10.60351	5.68698	4.98300	4.52742	23.51557	18.95505	15.37067
4270	3.71753	3.76143	3.37892	14.46359	13.81771	12.96218	13.96439	9.89362	6.64868	11.46323	11.00180	10.60280	5.70476	4.98985	4.51635	23.51413	18.96064	15.37841
4440	3.67671	3.71310	3.34353	14.46966	13.81099	12.95354	13.93588	9.93079	6.68960	11.46881	11.00389	10.59691	5.73945	5.01147	4.52191	23.51866	18.96676	15.38021
4600	3.65712	3.68804	3.31036	14.46241	13.81158	12.95640	13.94243	9.89612	6.67848	11.46802	11.00925	10.60749	5.75788	5.04404	4.57320	23.50878	18.96181	15.37779
4770	3.69514	3.70850	3.31214	14.46731	13.81460	12.95885	13.89544	9.86438	6.63910	11.46204	11.00694	10.60771	5.72647	5.02212	4.55749	23.50528	18.96112	15.37948
4930	3.71095	3.74127	3.35160	14.47058	13.81636	12.95522	13.91732	9.88804	6.64819	11.46274	11.00905	10.60820	5.71482	5.00280	4.53394	23.50960	18.96454	15.37895	36.92	6.1	0.00	-2.04	0.01730	0.01200	0.01519	0.01814	0.01876	0.01468	0.00548	0.01519	0.02007	0.01846	0.01281	0.01633	0.01709	0.01764	0.01379	0.00569	0.01602	0.02131
5100	3.68931	3.72243	3.33594	14.47185	13.81909	12.95475	13.95052	9.90137	6.67337	11.46308	11.00714	10.60769	5.74626	5.03013	4.55572	23.52485	18.96246	15.37880
5260	3.68289	3.70079	3.30477	14.47051	13.81789	12.95964	13.91590	9.87954	6.65583	11.46917	11.00883	10.60853	5.75816	5.05519	4.59305	23.52959	18.96419	15.38108
5430	3.71814	3.72418	3.32057	14.47035	13.81891	12.96023	13.88979	9.84971	6.62376	11.46327	11.00779	10.61306	5.73304	5.03628	4.58358	23.52876	18.96801	15.38011
5590	3.73919	3.75374	3.35007	14.48169	13.82567	12.96231	13.90407	9.85783	6.62601	11.46501	11.01298	10.61787	5.71509	5.02055	4.56458	23.51022	18.96480	15.38052
5750	3.72750	3.75141	3.35599	14.47670	13.82378	12.96151	13.92281	9.87870	6.63636	11.46617	11.00867	10.61503	5.71003	5.00353	4.54087	23.52464	18.96797	15.37934
5920	3.71130	3.74696	3.36450	14.46920	13.81970	12.96165	13.93362	9.89453	6.64899	11.46433	11.00656	10.61271	5.71286	5.00458	4.54121	23.51228	18.95812	15.37463
6080	3.70401	3.73478	3.34477	14.47357	13.82422	12.96394	13.92338	9.87735	6.64473	11.46778	11.01107	10.61583	5.72671	5.02133	4.55808	23.50384	18.95621	15.37484
6250	3.71231	3.73193	3.33564	14.47384	13.82139	12.96089	13.89622	9.87019	6.63812	11.47092	11.01645	10.61861	5.71816	5.01425	4.55151	23.50446	18.96406	15.38013
6410	3.71315	3.74414	3.35893	14.47022	13.81803	12.96279	13.92082	9.88829	6.64588	11.47186	11.01652	10.62224	5.70496	4.99233	4.52626	23.51146	18.96411	15.38033
6580	3.69446	3.73065	3.35406	14.47612	13.82604	12.96998	13.95435	9.91316	6.67580	11.47653	11.02061	10.62608	5.73208	5.01200	4.53293	23.52154	18.96770	15.38497	36.92	6.3	0.00	-2.04	0.01730	0.01200	0.01519	0.01814	0.01876	0.01468	0.00548	0.01519	0.02007	0.01846	0.01281	0.01633	0.01709	0.01765	0.01379	0.00569	0.01602	0.02131
6740	3.67888	3.70524	3.32514	14.47838	13.82361	12.96459	13.91659	9.90642	6.68102	11.47183	11.01498	10.62447	5.75292	5.03332	4.55823	23.52360	18.96770	15.38232
6900	3.68160	3.69990	3.31444	14.47641	13.82280	12.96643	13.92313	9.88856	6.65838	11.47243	11.01724	10.62405	5.73927	5.03173	4.56302	23.52402	18.96414	15.38232
7070	3.70867	3.72832	3.33026	14.47682	13.82506	12.96944	13.91782	9.86990	6.63943	11.47306	11.01656	10.62761	5.73094	5.02774	4.56601	23.49972	18.95911	15.37415
7230	3.71705	3.73675	3.34186	14.47652	13.82490	12.96423	13.93043	9.88093	6.64455	11.46500	11.01678	10.62906	5.71373	5.00858	4.54055	23.52216	18.96844	15.38512
7400	3.71007	3.74670	3.36878	14.48006	13.82644	12.96982	13.96795	9.90845	6.65787	11.47922	11.02226	10.62955	5.71430	5.00237	4.52874	23.52834	18.96466	15.38131
7560	3.69064	3.71895	3.33997	14.47745	13.82553	12.96762	13.93081	9.91170	6.68420	11.47360	11.01786	10.62847	5.74263	5.02252	4.53797	23.51413	18.96423	15.38122
7720	3.66877	3.69216	3.31188	14.47185	13.81905	12.96279	13.92445	9.90691	6.67939	11.47211	11.01907	10.62682	5.75971	5.04039	4.56648	23.51145	18.97039	15.38296
7890	3.69324	3.70840	3.31591	14.47460	13.82433	12.96903	13.90940	9.87161	6.64685	11.47408	11.02008	10.63008	5.74140	5.04178	4.58160	23.52443	18.95712	15.37631
8050	3.72811	3.74428	3.34273	14.47618	13.82357	12.96965	13.91337	9.86804	6.63139	11.47884	11.01988	10.62994	5.71359	5.01653	4.55949	23.53495	18.96562	15.37856
8220	3.73476	3.76249	3.36862	14.47384	13.82316	12.97135	13.92610	9.88068	6.63515	11.47515	11.01403	10.62462	5.71521	5.01072	4.54579	23.50331	18.97090	15.38387	36.92	6.1	0.00	-2.04	0.01731	0.01200	0.01519	0.01814	0.01876	0.01468	0.00548	0.01519	0.02008	0.01846	0.01281	0.01633	0.01709	0.01765	0.01379	0.00569	0.01601	0.02131
8380	3.69897	3.73102	3.34999	14.47659	13.82363	12.97099	13.95837	9.90774	6.67143	11.47859	11.02001	10.63180	5.72880	5.01281	4.53665	23.51627	18.96760	15.38117
8550	3.69156	3.72267	3.33872	14.47586	13.82500	12.97625	13.94469	9.89207	6.66344	11.48577	11.02463	10.63367	5.74337	5.03763	4.57391	23.51071	18.96656	15.38329
8710	3.71048	3.72267	3.32572	14.47756	13.82669	12.97149	13.89931	9.87090	6.64638	11.47872	11.01878	10.63132	5.73748	5.03144	4.56496	23.52060	18.97442	15.39035
8880	3.70917	3.72735	3.33333	14.47412	13.82188	12.97277	13.90905	9.88294	6.65608	11.48125	11.02027	10.63345	5.73419	5.02919	4.56877	23.52616	18.96517	15.38473
9040	3.71369	3.73539	3.34249	14.47462	13.82467	12.97551	13.93235	9.87717	6.63580	11.48681	11.02593	10.63697	5.71421	5.02331	4.56632	23.52740	18.96930	15.38535
9210	3.73409	3.75805	3.36149	14.47573	13.82581	12.97416	13.93245	9.87388	6.64009	11.48026	11.01986	10.63173	5.72109	5.01985	4.55675	23.52348	18.97021	15.39249
9370	3.71235	3.73488	3.34804	14.47906	13.82767	12.97655	13.95552	9.90128	6.66380	11.48154	11.01840	10.63233	5.71555	4.99370	4.50862	23.50948	18.97690	15.38440
9530	3.66184	3.70656	3.35049	14.47668	13.82752	12.97951	13.98617	9.95780	6.73152	11.47512	11.02665	10.64923	5.76551	5.03447	4.54323	23.52142	18.96604	15.38818
9700	3.63970	3.63609	3.24515	14.48051	13.83121	12.98269	13.89893	9.88347	6.69216	11.50389	11.03575	10.64737	5.83877	5.15749	4.70700	23.52781	18.99442	15.40372
9860	3.78041	3.74714	3.28781	14.49628	13.84376	12.98705	13.80710	9.75404	6.52723	11.51174	11.04788	10.65903	5.70213	5.07121	4.69324	23.50075	18.96638	15.38570	36.87	6.2	0.00	-2.04	0.01730	0.01200	0.01519	0.01814	0.01876	0.01468	0.00548	0.01519	0.02007	0.01846	0.01281	0.01633	0.01709	0.01764	0.01379	0.00569	0.01602	0.02131
10030	3.94181	3.95915	3.52567	14.48911	13.83386	12.96910	13.95182	9.81899	6.53147	11.44787	11.02277	10.63840	5.59481	4.90180	4.44756	23.52319	18.97915	15.39902
10190	3.76189	3.87546	3.57396	14.48604	13.83515	12.98186	14.20539	10.16092	6.85034	11.48340	11.04012	10.65618	5.68822	4.90795	4.39050	23.55271	18.98558	15.39722
10350	3.52856	3.55809	3.25807	14.48747	13.83513	12.98498	14.06122	10.10847	6.95548	11.49466	11.03833	10.64990	6.00896	5.22493	4.67039	23.52917	18.98158	15.39722
10520	3.58750	3.55584	3.16688	14.49070	13.84082	12.99058	13.81872	9.83474	6.70482	11.46344	11.01144	10.62518	5.93424	5.25317	4.81126	23.51186	18.96474	15.37858
10680	3.85757	3.79304	3.31141	14.48641	13.82826	12.96286	13.80888	9.75516	6.52461	11.45794	11.02186	10.63707	5.69199	5.05542	4.67250	23.51886	18.95415	15.37457
10850	3.91529	3.93963	3.52420	14.48618	13.84551	12.98731	13.99419	9.90369	6.61966	11.47493	11.01927	10.62641	5.64996	4.94618	4.49032	23.51722	18.97359	15.39115
11010	3.72211	3.77640	3.40494	14.48552	13.83876	12.98724	13.97884	9.91906	6.66199	11.50572	11.03258	10.62257	5.75550	5.02417	4.57312	23.54114	18.93973	15.35683
11170	3.79991	3.79885	3.40034	14.56307	13.85148	12.94493	13.93938	9.91528	6.67374	11.49583	11.10071	10.71320	5.65175	4.93718	4.49431	23.44129	18.93372	15.44012
11340	3.69950	3.75724	3.42501	14.51172	13.79395	12.93865	14.04806	10.05373	6.79508	11.53809	11.08192	10.64743	5.73714	5.00896	4.49730	23.53990	19.01188	15.44075
11500	3.58864	3.62550	3.27605	14.49085	13.85051	13.01142	13.96084	9.97977	6.77805	11.51125	11.03760	10.64759	5.86961	5.11904	4.59563	23.55581	19.00321	15.40571	36.92	6.1	0.00	-2.04	0.01729	0.01199	0.01517	0.01815	0.01877	0.01469	0.00547	0.01517	0.02005	0.01847	0.01281	0.01633	0.01707	0.01762	0.01377	0.00570	0.01603	0.02132
11670	3.63846	3.62917	3.22996	14.51132	13.85820	12.99387	13.88691	9.87357	6.70556	11.48483	11.04011	10.66011	5.83146	5.11291	4.64875	23.56739	18.98903	15.40601
11830	3.75621	3.75740	3.33313	14.52158	13.87401	12.97145	13.84700	9.81574	6.55811	11.54507	11.09111	10.63153	5.69897	5.04026	4.62713	23.54652	19.00926	15.43633
12000	3.87664	3.85311	3.42931	14.50945	13.83627	12.99121	13.95723	9.82804	6.55605	11.50119	11.02307	10.62692	5.64090	4.96197	4.50287	23.54033	18.97800	15.39318
12170	3.70802	3.78955	3.49386	14.44093	13.80699	12.98013	14.10167	10.10318	6.84212	11.35748	10.96999	10.61483	5.71438	4.94784	4.43061	23.47863	18.90244	15.32896
12340	3.60799	3.66193	3.37598	14.48447	13.80138	12.87810	14.16339	10.20082	6.94804	11.36683	11.00633	10.54586	5.89408	5.11047	4.56117	23.39249	18.88457	15.32832
12500	3.65910	3.62046	3.25985	14.41982	13.74335	12.88890	13.98335	10.00371	6.82375	11.30631	10.95037	10.52847	5.90171	5.19005	4.69962	23.39026	18.86077	15.29823
12660	3.81785	3.74951	3.36698	14.41356	13.74083	12.86459	13.99701	9.92094	6.68356	11.27338	10.94919	10.49974	5.80491	5.13088	4.67949	23.36469	18.85400	15.28889
12820	3.84353	3.75722	3.35567	14.41926	13.75323	12.88386	13.96323	9.89961	6.67891	11.28866	10.95913	10.53184	5.80105	5.10289	4.65374	23.39859	18.89141	15.35217
12980	3.75618	3.70635	3.27202	14.46512	13.80655	12.95307	13.86632	9.80233	6.58943	11.45657	11.00034	10.60675	5.74960	5.06916	4.62135	23.53909	18.99042	15.38064
13150	3.76258	3.71388	3.28423	14.49856	13.85540	12.99067	13.78864	9.72568	6.49626	11.47783	11.05510	10.67833	5.66468	5.02978	4.62327	23.57869	19.04558	15.47855	36.92	6.0	0.00	-2.04	0.01728	0.01199	0.01517	0.01816	0.01878	0.01469	0.00547	0.01516	0.02004	0.01847	0.01282	0.01634	0.01706	0.01762	0.01377	0.00570	0.01603	0.02132
