WetView ver 7.1	07-17-2019	11:59:12
AC9 Absorption and Attenuation Meter
00000311		; Serial number
2	; structure version number
Reserved
0.000000	0.000000		; Depth calibration
19200			; Baud rate
0.100000			; Path length (meters)
23			; number of temperature calibration bins
				12.61517	13.44096	14.46844	15.49904	16.50682	17.50108	18.49752	19.51783	20.49177	21.49009	22.48286	23.50673	24.54012	25.54812	26.49986	27.49321	28.50960	29.48671	30.47471	31.49432	32.50437	33.48679	34.49133	; temperature bins
a650	Blue	18.61587		0.01156	0.01096	0.01010	0.00930	0.00851	0.00774	0.00661	0.00573	0.00499	0.00402	0.00285	0.00203	0.00096	0.00000	-0.00110	-0.00152	-0.00210	-0.00247	-0.00259	-0.00317	-0.00346	-0.00380	-0.00403		; offset and temperature correction info
a676	Green	18.78942		0.00964	0.00899	0.00863	0.00813	0.00730	0.00639	0.00545	0.00448	0.00385	0.00301	0.00233	0.00165	0.00046	0.00000	-0.00106	-0.00167	-0.00251	-0.00280	-0.00316	-0.00329	-0.00377	-0.00392	-0.00441		; offset and temperature correction info
a715	Brown	18.59217		0.01171	0.01109	0.01043	0.00975	0.00878	0.00789	0.00685	0.00572	0.00469	0.00356	0.00255	0.00160	0.00061	0.00000	-0.00063	-0.00113	-0.00152	-0.00183	-0.00226	-0.00293	-0.00364	-0.00404	-0.00473		; offset and temperature correction info
c510	Red	18.18396		-0.00549	-0.00480	-0.00383	-0.00272	-0.00202	-0.00118	-0.00044	-0.00038	-0.00015	-0.00021	0.00013	0.00007	-0.00007	0.00000	-0.00007	-0.00065	-0.00045	-0.00018	0.00007	0.00039	-0.00001	-0.00002	-0.00045		; offset and temperature correction info
c532	Magenta	18.26528		-0.00721	-0.00645	-0.00581	-0.00518	-0.00465	-0.00345	-0.00281	-0.00270	-0.00182	-0.00141	-0.00108	-0.00072	-0.00022	0.00000	0.00044	0.00030	0.00031	-0.00006	-0.00052	-0.00089	-0.00142	-0.00149	-0.00154		; offset and temperature correction info
c555	Black	18.37125		-0.00430	-0.00419	-0.00381	-0.00319	-0.00286	-0.00254	-0.00205	-0.00196	-0.00138	-0.00137	-0.00067	-0.00051	-0.00030	0.00000	0.00067	0.00087	0.00057	0.00027	-0.00015	-0.00089	-0.00127	-0.00137	-0.00150		; offset and temperature correction info
a412	LtBlue	15.33566		-0.06011	-0.05567	-0.05012	-0.04441	-0.03922	-0.03412	-0.02941	-0.02503	-0.02049	-0.01588	-0.01121	-0.00784	-0.00311	0.00000	0.00273	0.00611	0.00757	0.00871	0.01066	0.01299	0.01539	0.01781	0.02175		; offset and temperature correction info
a440	LtGreen	16.05925		-0.01380	-0.01214	-0.01039	-0.00858	-0.00690	-0.00532	-0.00426	-0.00322	-0.00230	-0.00158	-0.00055	0.00006	0.00001	0.00000	0.00017	0.00016	-0.00094	-0.00222	-0.00363	-0.00486	-0.00567	-0.00651	-0.00782		; offset and temperature correction info
a488	Yellow	16.82827		0.00255	0.00293	0.00331	0.00354	0.00373	0.00378	0.00363	0.00350	0.00291	0.00225	0.00215	0.00142	0.00099	0.00000	-0.00092	-0.00169	-0.00295	-0.00396	-0.00479	-0.00542	-0.00582	-0.00604	-0.00663		; offset and temperature correction info
c650	Blue	18.49287		-0.00570	-0.00516	-0.00456	-0.00403	-0.00346	-0.00232	-0.00132	-0.00122	-0.00073	-0.00066	-0.00035	-0.00016	0.00003	0.00000	0.00044	0.00078	0.00108	0.00057	0.00040	-0.00042	-0.00033	-0.00029	-0.00034		; offset and temperature correction info
c676	Green	18.50570		0.00299	0.00293	0.00287	0.00293	0.00278	0.00294	0.00317	0.00251	0.00243	0.00215	0.00139	0.00123	0.00068	0.00000	-0.00041	-0.00106	-0.00205	-0.00268	-0.00325	-0.00413	-0.00495	-0.00610	-0.00674		; offset and temperature correction info
c715	Brown	17.88888		0.00826	0.00812	0.00773	0.00790	0.00766	0.00758	0.00753	0.00650	0.00571	0.00461	0.00359	0.00222	0.00101	0.00000	-0.00146	-0.00284	-0.00385	-0.00448	-0.00463	-0.00513	-0.00623	-0.00715	-0.00838		; offset and temperature correction info
a510	Red	17.18050		0.00353	0.00364	0.00354	0.00361	0.00381	0.00381	0.00356	0.00332	0.00277	0.00229	0.00176	0.00116	0.00036	0.00000	-0.00014	-0.00069	-0.00088	-0.00147	-0.00150	-0.00129	-0.00120	-0.00134	-0.00091		; offset and temperature correction info
a532	Magenta	17.40228		0.00550	0.00548	0.00526	0.00479	0.00464	0.00422	0.00393	0.00328	0.00253	0.00212	0.00136	0.00085	0.00039	0.00000	-0.00059	-0.00146	-0.00188	-0.00262	-0.00330	-0.00393	-0.00491	-0.00540	-0.00605		; offset and temperature correction info
a555	Black	17.72308		0.00849	0.00832	0.00800	0.00760	0.00724	0.00655	0.00580	0.00495	0.00435	0.00347	0.00252	0.00153	0.00049	0.00000	-0.00050	-0.00155	-0.00214	-0.00306	-0.00350	-0.00411	-0.00470	-0.00539	-0.00570		; offset and temperature correction info
c412	LtBlue	16.72802		-0.05949	-0.05458	-0.04744	-0.04134	-0.03547	-0.03064	-0.02511	-0.02047	-0.01574	-0.01163	-0.00761	-0.00442	-0.00204	0.00000	0.00100	0.00051	-0.00043	-0.00239	-0.00475	-0.00629	-0.00827	-0.00955	-0.01337		; offset and temperature correction info
c440	LtGreen	17.42637		-0.02723	-0.02503	-0.02216	-0.01930	-0.01691	-0.01394	-0.01125	-0.00926	-0.00732	-0.00582	-0.00401	-0.00226	-0.00093	0.00000	0.00082	0.00123	0.00133	0.00097	0.00038	-0.00003	-0.00022	-0.00023	-0.00125		; offset and temperature correction info
c488	Yellow	18.03666		-0.00640	-0.00554	-0.00465	-0.00357	-0.00276	-0.00154	-0.00067	-0.00031	-0.00014	-0.00012	0.00046	0.00032	0.00020	0.00000	0.00001	-0.00024	-0.00060	-0.00084	-0.00126	-0.00180	-0.00276	-0.00304	-0.00427		; offset and temperature correction info
0.003500	0.004000	0.015000	0.020000	0.015000	0.020000	2500.000000	2000.000000	1000.000000	; maxANoise	maxCNoise	maxADifference	maxCDifference	minACounts	minCCounts	minRCounts	maxTempSdev	maxDepthSdev
0			; auxilliary capabilities
1			; acquisition binsize
0	1.99863	1.99184	1.66862	10.61829	9.83413	9.09690	11.72182	7.75327	4.67632	7.45886	7.27929	6.83245	3.88432	3.26115	2.75604	19.27472	14.93770	11.50862	36.76	6.1	0.00	-2.04	0.01732	0.01201	0.01520	0.01819	0.01880	0.01471	0.00548	0.01520	0.02009	0.01854	0.01289	0.01644	0.01710	0.01766	0.01380	0.00570	0.01604	0.02135
160	2.00173	1.99468	1.66920	10.62082	9.83821	9.09726	11.72600	7.76213	4.68119	7.46033	7.28281	6.83501	3.88505	3.25880	2.75575	19.27041	14.93629	11.50625
330	2.00141	1.99378	1.66886	10.61876	9.83636	9.09743	11.71187	7.75667	4.67669	7.45905	7.28117	6.83248	3.88608	3.26118	2.75975	19.27243	14.94222	11.51274
490	2.00656	1.99622	1.67324	10.62572	9.84145	9.10198	11.71104	7.75940	4.68244	7.46255	7.28434	6.83577	3.88472	3.25941	2.75593	19.26557	14.93808	11.50802
660	2.00289	1.99490	1.67161	10.62136	9.83860	9.10001	11.72258	7.75911	4.68222	7.46268	7.28438	6.83523	3.88455	3.26200	2.75671	19.27028	14.93791	11.50856
820	2.00326	1.99597	1.67170	10.62315	9.84002	9.10086	11.71384	7.75595	4.68047	7.46275	7.28556	6.83512	3.88493	3.26056	2.75692	19.27095	14.93646	11.50689
990	2.00015	1.99498	1.67225	10.61915	9.83710	9.09830	11.71984	7.76041	4.68063	7.46223	7.28410	6.83685	3.88528	3.26174	2.75624	19.27230	14.93629	11.50641
1150	2.00169	1.99413	1.67119	10.62038	9.83703	9.09634	11.71248	7.75400	4.67996	7.45977	7.28275	6.83365	3.88516	3.26147	2.75775	19.27028	14.93927	11.50986
1320	2.00185	1.99603	1.67124	10.62404	9.84095	9.09988	11.70595	7.75571	4.68189	7.46326	7.28568	6.83644	3.88342	3.25874	2.75500	19.27458	14.93785	11.50941
1480	2.00025	1.99462	1.67026	10.62286	9.84227	9.10181	11.70565	7.75699	4.68173	7.46510	7.28771	6.83945	3.88793	3.25964	2.75712	19.27808	14.94269	11.51100
1650	2.00262	1.99516	1.67096	10.62501	9.84080	9.10046	11.70538	7.75495	4.67914	7.46236	7.28472	6.83619	3.88545	3.26193	2.75876	19.26766	14.94142	11.51364	36.76	6.1	0.00	-2.04	0.01732	0.01201	0.01520	0.01819	0.01880	0.01471	0.00548	0.01520	0.02009	0.01854	0.01289	0.01644	0.01710	0.01766	0.01380	0.00570	0.01604	0.02135
1810	2.00453	1.99276	1.67295	10.62906	9.84419	9.10328	11.70712	7.75710	4.68007	7.46496	7.28889	6.83850	3.88464	3.25697	2.75814	19.27479	14.94244	11.51165
1980	2.00349	1.99715	1.67350	10.62769	9.84674	9.10591	11.71859	7.76229	4.68410	7.46739	7.29115	6.84089	3.88926	3.26040	2.75795	19.27520	14.94369	11.51422
2140	2.00226	1.99183	1.67177	10.62849	9.84483	9.10391	11.70879	7.75665	4.67891	7.46464	7.28835	6.83845	3.88526	3.25827	2.75472	19.27318	14.94047	11.51206
2300	1.99868	1.99326	1.67103	10.62698	9.84371	9.10495	11.70007	7.75896	4.67890	7.46512	7.28936	6.83930	3.88113	3.25758	2.75226	19.26874	14.94102	11.51095
2470	2.00182	1.99545	1.67280	10.62977	9.84834	9.10906	11.71433	7.76261	4.68348	7.46881	7.29211	6.84297	3.88749	3.25898	2.75703	19.28058	14.94453	11.51658
2630	2.00144	1.99172	1.66990	10.63029	9.84538	9.10529	11.70303	7.75628	4.67872	7.46572	7.28901	6.83875	3.88486	3.26112	2.75917	19.27399	14.94395	11.51492
2800	2.00137	1.99229	1.67080	10.62788	9.84547	9.10404	11.70659	7.75623	4.67967	7.46517	7.28838	6.83948	3.88291	3.25704	2.75563	19.26968	14.93931	11.51033
2960	2.00040	1.99230	1.67123	10.62692	9.84460	9.10503	11.70341	7.75793	4.68046	7.46614	7.28948	6.83994	3.88217	3.25776	2.75188	19.26053	14.93966	11.50934
3120	1.99893	1.99095	1.66850	10.62495	9.84304	9.10360	11.69977	7.75375	4.67825	7.46534	7.28767	6.83945	3.88292	3.25667	2.75205	19.26309	14.93601	11.50776
3290	2.00048	1.99454	1.67165	10.62759	9.84738	9.10772	11.70998	7.75854	4.68000	7.46874	7.29236	6.84222	3.88530	3.25910	2.75685	19.26844	14.94262	11.51196	36.76	6.1	0.00	-2.04	0.01732	0.01201	0.01520	0.01819	0.01880	0.01471	0.00548	0.01520	0.02009	0.01854	0.01289	0.01644	0.01710	0.01766	0.01380	0.00570	0.01604	0.02135
3450	1.99885	1.99258	1.66932	10.62711	9.84361	9.10318	11.70709	7.75428	4.67505	7.46573	7.28810	6.83916	3.88174	3.25799	2.75477	19.26817	14.94091	11.50974
3620	1.99782	1.99058	1.67036	10.62674	9.84502	9.10425	11.72235	7.75735	4.67675	7.46561	7.28657	6.83857	3.88247	3.25854	2.75497	19.28352	14.93960	11.50971
3780	1.99848	1.99153	1.66999	10.62599	9.84376	9.10496	11.71658	7.75457	4.67839	7.46728	7.28946	6.84116	3.88203	3.25525	2.75281	19.27463	14.94105	11.51128
3950	1.99949	1.99259	1.66962	10.62531	9.84326	9.10299	11.70945	7.75257	4.67906	7.46575	7.28846	6.83840	3.88234	3.25783	2.75851	19.27153	14.94383	11.51469
4110	2.00337	1.99346	1.67074	10.62951	9.84745	9.10791	11.70967	7.76005	4.67886	7.46812	7.28979	6.84177	3.88542	3.26003	2.75509	19.27247	14.94207	11.51173
4270	1.99912	1.99156	1.67147	10.62624	9.84440	9.10791	11.70239	7.75631	4.68159	7.46746	7.29064	6.84087	3.88626	3.26351	2.75719	19.27692	14.94363	11.51414
4440	1.99908	1.99269	1.66734	10.62730	9.84513	9.10454	11.70831	7.75090	4.67756	7.46656	7.28816	6.83958	3.88352	3.25813	2.75605	19.27571	14.94244	11.51205
4600	2.00026	1.99539	1.67141	10.62542	9.84285	9.10416	11.71802	7.75766	4.68106	7.46208	7.28634	6.83742	3.88541	3.25873	2.75710	19.27234	14.93775	11.50962
4770	1.99854	1.99233	1.66736	10.62271	9.84192	9.10161	11.71241	7.75025	4.67382	7.46231	7.28434	6.83653	3.88248	3.25851	2.75885	19.27490	14.94210	11.51320
4930	1.99945	1.99147	1.67056	10.62552	9.84322	9.10282	11.69752	7.75615	4.67780	7.46265	7.28573	6.83751	3.88516	3.26114	2.75788	19.26472	14.93789	11.50849	36.76	5.9	0.00	-2.04	0.01731	0.01201	0.01519	0.01820	0.01881	0.01472	0.00548	0.01519	0.02008	0.01854	0.01290	0.01644	0.01709	0.01765	0.01379	0.00570	0.01604	0.02136
5090	2.00687	1.99844	1.67593	10.62318	9.84375	9.10439	11.72850	7.76241	4.68579	7.46365	7.28748	6.83662	3.89025	3.26489	2.75914	19.26848	14.93934	11.51051
5260	2.00443	1.99646	1.67462	10.62049	9.83757	9.09891	11.71953	7.76608	4.68519	7.45932	7.28030	6.83282	3.89111	3.26687	2.76615	19.26445	14.93529	11.50755
5420	2.01027	2.00304	1.67953	10.61826	9.83270	9.09745	11.72029	7.76815	4.69335	7.45711	7.27711	6.82994	3.89830	3.26945	2.76708	19.25424	14.92444	11.49831
5590	2.01316	2.00706	1.68576	10.60848	9.82738	9.09244	11.73124	7.78183	4.70210	7.45593	7.27543	6.82885	3.90400	3.27432	2.77008	19.25558	14.92762	11.49867
5750	2.01414	2.00354	1.68177	10.60691	9.82443	9.09054	11.73604	7.77455	4.69067	7.45264	7.27270	6.82606	3.89316	3.26582	2.76525	19.25813	14.92594	11.49538
5910	2.00764	1.99881	1.67664	10.60604	9.82414	9.08754	11.71778	7.76566	4.68392	7.45235	7.27155	6.82440	3.89165	3.26589	2.76451	19.25101	14.92886	11.50256
6080	2.00947	2.00196	1.67937	10.61140	9.82835	9.09289	11.73345	7.77727	4.69704	7.45195	7.27370	6.82549	3.90040	3.27830	2.77465	19.25719	14.92282	11.49539
6240	2.01901	2.01140	1.68948	10.60469	9.82378	9.08999	11.75463	7.78413	4.70132	7.45076	7.27867	6.82745	3.90412	3.27616	2.77207	19.25262	14.92412	11.49555
6400	2.01610	2.00641	1.68104	10.60885	9.82320	9.08948	11.73155	7.76781	4.69066	7.45204	7.27436	6.82782	3.89445	3.26760	2.76396	19.25262	14.93126	11.50019
6570	2.00682	1.99819	1.67676	10.60926	9.82535	9.09030	11.72132	7.76654	4.69247	7.45330	7.27573	6.82688	3.89341	3.27276	2.76971	19.25722	14.92756	11.49780	36.76	6.0	0.00	-2.04	0.01731	0.01200	0.01519	0.01820	0.01881	0.01472	0.00548	0.01519	0.02007	0.01854	0.01290	0.01645	0.01709	0.01764	0.01379	0.00570	0.01605	0.02136
6740	2.01287	2.00936	1.68570	10.60270	9.82246	9.08823	11.73334	7.78565	4.70453	7.45110	7.27112	6.82494	3.90958	3.28618	2.78356	19.26878	14.92051	11.49194
6900	2.02500	2.01594	1.69592	10.59566	9.81759	9.08473	11.75117	7.79587	4.71571	7.44798	7.26825	6.82129	3.91872	3.29262	2.78787	19.24366	14.91430	11.48564
7060	2.02997	2.02295	1.69946	10.58989	9.81175	9.08054	11.75529	7.80181	4.71409	7.44393	7.26527	6.81884	3.91944	3.28692	2.78386	19.24326	14.91736	11.49038
7220	2.02015	2.01073	1.68515	10.59956	9.81837	9.08683	11.74118	7.77407	4.69256	7.44735	7.27364	6.82491	3.89306	3.26361	2.75654	19.25494	14.92733	11.50054
7390	1.99613	1.98611	1.66337	10.61702	9.83565	9.10039	11.68473	7.73671	4.66167	7.46200	7.28718	6.83762	3.86777	3.24675	2.74767	19.27147	14.93879	11.51160
7550	1.99170	1.98344	1.66192	10.63489	9.84123	9.10648	11.70346	7.74212	4.66685	7.46499	7.29066	6.84340	3.87299	3.24871	2.75008	19.27698	14.94600	11.51905
7720	1.99568	1.98889	1.66822	10.63522	9.85083	9.10941	11.69944	7.74837	4.67390	7.47034	7.29529	6.84479	3.87468	3.24921	2.74689	19.28708	14.94974	11.52073
7880	1.99347	1.98724	1.66418	10.63615	9.85088	9.11039	11.71531	7.74980	4.67045	7.47097	7.29550	6.84634	3.87309	3.24884	2.74645	19.27658	14.94832	11.51985
8050	1.99419	1.98561	1.66467	10.63345	9.84976	9.11066	11.73052	7.74329	4.66723	7.47024	7.29421	6.84506	3.87195	3.24915	2.74472	19.29005	14.94658	11.51823
8220	1.99404	1.98931	1.66553	10.63400	9.84879	9.10912	11.70617	7.74536	4.67213	7.46962	7.29440	6.84421	3.87529	3.25176	2.74746	19.27771	14.94418	11.51713	36.82	6.2	0.00	-2.04	0.01731	0.01200	0.01519	0.01820	0.01881	0.01472	0.00548	0.01519	0.02008	0.01854	0.01290	0.01644	0.01709	0.01765	0.01379	0.00570	0.01604	0.02136
8380	1.99144	1.98611	1.66203	10.63209	9.84702	9.10853	11.69737	7.74329	4.66769	7.46812	7.29244	6.84285	3.87523	3.25246	2.75089	19.27502	14.95296	11.52223
8540	1.99565	1.98512	1.66551	10.63660	9.85084	9.11174	11.69593	7.74818	4.67019	7.47108	7.29622	6.84495	3.87536	3.25134	2.74721	19.28068	14.94823	11.51701
8710	1.99429	1.98547	1.66396	10.63275	9.84987	9.10993	11.68501	7.74649	4.66953	7.47107	7.29495	6.84469	3.87533	3.25081	2.75040	19.27718	14.94435	11.51476
8870	1.99379	1.98619	1.66360	10.63223	9.84949	9.11102	11.69290	7.74857	4.66930	7.47172	7.29486	6.84550	3.87454	3.25050	2.74645	19.27866	14.94331	11.51437
9040	1.99387	1.98699	1.66565	10.62800	9.84556	9.10704	11.70018	7.74529	4.66767	7.46753	7.29152	6.84257	3.87393	3.25092	2.74970	19.27933	14.94835	11.51805
9210	1.99449	1.98761	1.66671	10.62997	9.84819	9.10839	11.68206	7.74806	4.67198	7.46950	7.29096	6.84388	3.87218	3.25072	2.74911	19.28337	14.94513	11.51425
9370	1.99488	1.98863	1.66659	10.63160	9.85023	9.11203	11.70222	7.74898	4.67609	7.47360	7.29631	6.84757	3.87938	3.25359	2.74892	19.29631	14.94904	11.51889
9530	1.99386	1.98658	1.66483	10.62963	9.84803	9.10880	11.67479	7.74686	4.67028	7.46978	7.29297	6.84322	3.87442	3.24799	2.74303	19.27435	14.94235	11.51369
9700	1.99298	1.98557	1.66589	10.62909	9.84657	9.10818	11.68789	7.74478	4.66804	7.46917	7.29352	6.84378	3.87439	3.25124	2.74970	19.28418	14.94916	11.51832
9860	1.99849	1.98801	1.66852	10.63167	9.85006	9.10998	11.70857	7.75255	4.67280	7.47190	7.29427	6.84666	3.87890	3.25245	2.75022	19.27828	14.94492	11.51385	36.76	6.2	0.00	-2.04	0.01731	0.01201	0.01519	0.01819	0.01881	0.01471	0.00548	0.01519	0.02008	0.01854	0.01290	0.01644	0.01709	0.01765	0.01379	0.00570	0.01604	0.02136
10030	1.99298	1.98989	1.66755	10.63025	9.84763	9.10884	11.70834	7.74956	4.67382	7.47116	7.29461	6.84525	3.87846	3.25265	2.74934	19.27437	14.94196	11.51441
10190	1.99584	1.98408	1.66427	10.62850	9.84709	9.10546	11.69014	7.74042	4.66746	7.46714	7.29171	6.84139	3.87306	3.24761	2.74722	19.27545	14.93765	11.50859
10350	1.99065	1.98550	1.66504	10.62464	9.84784	9.10742	11.69476	7.74944	4.67236	7.47131	7.29535	6.84546	3.87737	3.25187	2.74897	19.27356	14.94518	11.51186
10520	1.99476	1.98727	1.66419	10.62798	9.84692	9.10498	11.69878	7.74304	4.66616	7.46754	7.29175	6.84296	3.87472	3.25017	2.74549	19.28110	14.94359	11.51389
10680	1.99596	1.98838	1.66509	10.62839	9.84658	9.10522	11.70007	7.74984	4.67196	7.46899	7.29193	6.84265	3.87243	3.24988	2.74866	19.26939	14.94298	11.51010
10850	1.99228	1.98427	1.66314	10.62470	9.84474	9.10105	11.69787	7.74258	4.66396	7.46646	7.28975	6.84060	3.87617	3.25051	2.75036	19.27680	14.94599	11.51327
11010	1.99609	1.98964	1.66334	10.62761	9.84702	9.10564	11.70295	7.74779	4.66882	7.46816	7.29166	6.84214	3.87737	3.25020	2.74812	19.26361	14.93854	11.50927
11170	1.99398	1.98517	1.66731	10.62733	9.84739	9.10650	11.70644	7.74537	4.67337	7.47087	7.29430	6.84558	3.87690	3.25162	2.74943	19.28474	14.94312	11.51165
11340	1.99360	1.98743	1.66370	10.62641	9.84539	9.10594	11.69158	7.74525	4.66953	7.46971	7.29234	6.84237	3.87497	3.25153	2.74964	19.28380	14.94454	11.51515
11500	1.99415	1.98714	1.66508	10.62851	9.84752	9.10748	11.71042	7.74579	4.67007	7.46994	7.29271	6.84502	3.87269	3.24845	2.74673	19.27772	14.94067	11.51066	36.82	6.0	0.00	-2.04	0.01731	0.01201	0.01519	0.01819	0.01881	0.01472	0.00548	0.01519	0.02008	0.01854	0.01290	0.01644	0.01709	0.01765	0.01379	0.00570	0.01604	0.02136
11670	1.99263	1.98862	1.66573	10.62780	9.84799	9.10884	11.71049	7.74897	4.67237	7.47308	7.29459	6.84697	3.87442	3.24904	2.74801	19.27799	14.94470	11.51443
11830	1.99240	1.98564	1.66312	10.62716	9.84675	9.10811	11.69903	7.74668	4.66589	7.46938	7.29083	6.84293	3.87120	3.25040	2.74756	19.26251	14.94328	11.51441
12000	1.99302	1.98515	1.66546	10.62580	9.84660	9.10714	11.70366	7.74746	4.66738	7.47140	7.29294	6.84281	3.87285	3.24807	2.74659	19.27260	14.94311	11.51063
12160	1.99162	1.98518	1.66332	10.62386	9.84360	9.10407	11.68630	7.73648	4.66444	7.46729	7.28939	6.84220	3.87314	3.25120	2.74727	19.26709	14.94389	11.51549
12330	1.99479	1.98950	1.66523	10.62782	9.84795	9.10880	11.69380	7.74635	4.67028	7.47163	7.29408	6.84595	3.87309	3.24915	2.74504	19.27812	14.94224	11.51216
12490	1.99400	1.98743	1.66544	10.62579	9.84570	9.10702	11.69873	7.75001	4.67367	7.46898	7.29225	6.84241	3.87536	3.25378	2.75261	19.26534	14.93338	11.50616
12660	2.00000	1.99647	1.67324	10.62179	9.84375	9.10251	11.72250	7.75845	4.68193	7.46477	7.28752	6.83829	3.88471	3.26154	2.75936	19.26104	14.93341	11.50418
12820	2.00235	1.99592	1.67446	10.61716	9.83909	9.09810	11.71619	7.75737	4.68476	7.46240	7.28340	6.83517	3.88644	3.26584	2.76376	19.25418	14.92681	11.49671
12990	2.00907	2.00424	1.68375	10.60398	9.82869	9.09293	11.74213	7.78245	4.70471	7.46077	7.27472	6.83118	3.90743	3.28429	2.78500	19.24640	14.92160	11.48756
13160	2.01766	2.01046	1.69139	10.59706	9.82023	9.08924	11.74149	7.78710	4.71216	7.46075	7.27176	6.82859	3.91411	3.29021	2.78678	19.25006	14.91676	11.48394	36.76	6.0	0.00	-2.04	0.01730	0.01200	0.01518	0.01820	0.01881	0.01472	0.00547	0.01517	0.02006	0.01855	0.01290	0.01645	0.01707	0.01763	0.01377	0.00570	0.01605	0.02137
13320	2.02985	2.02328	1.70292	10.58449	9.81141	9.08030	11.75966	7.80806	4.72852	7.45343	7.26381	6.82113	3.92919	3.30435	2.80114	19.23746	14.90620	11.47534
13480	2.04224	2.03279	1.70987	10.57375	9.80042	9.07189	11.78038	7.82258	4.74019	7.44176	7.25459	6.81468	3.94488	3.31168	2.80664	19.24135	14.90075	11.47364
